# The following tables show the relative spectral response (RSR) curves, which take account of the photon to energy conversion of the detector quantum efficiency by multiplying by the wavelengths (FAD = Filter and Detector).
#Thus these RSRs can directly be integrated over spectra given as $F_\lambda$ to obtain the in-band fluxes.
#These RSRs have been prepared in collaboration with Martin Cohen and assure the common calibration of the IRC with other missions and ground-based instruments, including Subaru/COMICS, in the framework of the absolute calibration network provided by Martin Cohen and his colleagues.
#The present RSRs are prepared on the basis of the best laboratory measurements of the optical elements of the IRC
#http://www.ir.isas.jaxa.jp/ASTRO-F/Observation/RSRF/IRC_FAD/index.html
#wave   response   
100000.0   0.0   
100009.0   0.0010673   
100105.0   0.0010703   
100202.0   0.0010418   
100299.0   0.00099258   
100396.0   0.00088369   
100493.0   0.0010622   
100591.0   0.0012926   
100688.0   0.001291   
100786.0   0.0013023   
100884.0   0.0011643   
100983.0   0.0010368   
101081.0   0.0011762   
101180.0   0.0011309   
101278.0   0.0010469   
101377.0   0.0010679   
101477.0   0.00098703   
101576.0   0.0011813   
101676.0   0.0013048   
101775.0   0.0011269   
101875.0   0.0011758   
101976.0   0.0011479   
102076.0   0.0011162   
102177.0   0.0012455   
102277.0   0.001075   
102378.0   0.00084629   
102479.0   0.00091875   
102581.0   0.0011602   
102682.0   0.0011166   
102784.0   0.00091277   
102886.0   0.0012387   
102988.0   0.0012941   
103091.0   0.0010669   
103193.0   0.0011121   
103296.0   0.00095443   
103399.0   0.0010452   
103502.0   0.0011233   
103606.0   0.00081173   
103709.0   0.0010241   
103813.0   0.0011639   
103917.0   0.0007882   
104021.0   0.00077224   
104126.0   0.00098495   
104230.0   0.00099511   
104335.0   0.00094445   
104440.0   0.00083324   
104545.0   0.00077132   
104651.0   0.0007333   
104757.0   0.00072502   
104863.0   0.0009536   
104969.0   0.0010077   
105075.0   0.00075281   
105182.0   0.00066668   
105288.0   0.00081918   
105395.0   0.001094   
105503.0   0.00092391   
105610.0   0.00073671   
105718.0   0.00098786   
105826.0   0.00079287   
105934.0   0.00059992   
106042.0   0.00068682   
106151.0   0.00066781   
106259.0   0.00077187   
106368.0   0.00072994   
106478.0   0.0006771   
106587.0   0.00077068   
106697.0   0.00075025   
106807.0   0.0005538   
106917.0   0.00072349   
107027.0   0.00093518   
107138.0   0.00070308   
107248.0   0.00061453   
107359.0   0.00066555   
107471.0   0.00060543   
107582.0   0.00070016   
107694.0   0.0007146   
107806.0   0.0007973   
107918.0   0.00083938   
108030.0   0.00059104   
108143.0   0.00063682   
108256.0   0.00074942   
108369.0   0.00059991   
108482.0   0.00081903   
108596.0   0.00092989   
108710.0   0.00064588   
108824.0   0.00072391   
108938.0   0.00070158   
109053.0   0.00043501   
109168.0   0.00052304   
109283.0   0.00075395   
109398.0   0.00093387   
109513.0   0.00072741   
109629.0   0.000355   
109745.0   0.00052309   
109861.0   0.00071114   
109978.0   0.00075904   
110095.0   0.00091155   
110212.0   0.00088465   
110329.0   0.00061904   
110446.0   0.00051297   
110564.0   0.00071824   
110682.0   0.00058725   
110800.0   0.00051194   
110919.0   0.00082129   
111038.0   0.00067906   
111157.0   0.00056804   
111276.0   0.0010452   
111396.0   0.0010647   
111515.0   0.00063177   
111635.0   0.0005511   
111756.0   0.0005381   
111876.0   0.00066237   
111997.0   0.00065208   
112118.0   0.00019462   
112239.0   7.5077e-05   
112361.0   0.00059075   
112483.0   0.0006231   
112605.0   0.00038296   
112727.0   0.0006346   
112850.0   0.0005654   
112973.0   0.00040974   
113096.0   0.00058376   
113220.0   0.00059198   
113343.0   0.00066609   
113467.0   0.00065457   
113592.0   0.00051214   
113716.0   0.00057345   
113841.0   0.00059005   
113966.0   0.00040496   
114092.0   0.00016001   
114217.0   0.0003507   
114343.0   0.00027421   
114469.0   0.0004616   
114596.0   0.00082137   
114722.0   0.00054536   
114850.0   0.00010571   
114977.0   8.3694e-05   
115105.0   0.00059281   
115232.0   0.00077987   
115361.0   0.0005253   
115489.0   0.00068144   
115618.0   0.00025371   
115747.0   0.0   
115876.0   0.00066239   
116006.0   0.00083913   
116136.0   0.00026995   
116266.0   0.00025848   
116396.0   0.00064139   
116527.0   0.0007258   
116658.0   0.00050301   
116790.0   0.00038671   
116921.0   0.00030379   
117053.0   0.00052441   
117185.0   0.00031649   
117318.0   0.00010792   
117451.0   0.00036985   
117584.0   0.00029861   
117718.0   3.6353e-05   
117851.0   0.0   
117985.0   0.00027269   
118120.0   0.00032867   
118254.0   0.00034992   
118390.0   0.00077136   
118525.0   0.00078207   
118660.0   0.00036175   
118796.0   0.00019485   
118933.0   0.00013228   
119069.0   0.00040842   
119206.0   0.00049754   
119343.0   0.00043969   
119481.0   0.00059309   
119618.0   0.00015265   
119757.0   0.00023402   
119895.0   0.0001974   
120034.0   0.0   
120173.0   0.00044527   
120312.0   0.00051979   
120452.0   0.0   
120592.0   0.00021904   
120732.0   0.00031017   
120873.0   0.00024397   
121014.0   0.0005058   
121156.0   0.0   
121297.0   0.0001464   
121439.0   0.00017495   
121582.0   1.1674e-05   
121724.0   0.00024484   
121867.0   0.00019723   
122011.0   0.00024158   
122155.0   3.1886e-05   
122299.0   5.9196e-05   
122443.0   0.00018025   
122588.0   0.00011103   
122733.0   0.00028658   
122878.0   0.00021282   
123024.0   0.00038822   
123170.0   0.00031537   
123316.0   0.00033812   
123463.0   8.8656e-05   
123610.0   0.00072864   
123758.0   0.00023705   
123906.0   0.0   
124054.0   0.00045444   
124203.0   0.00051095   
124352.0   0.0   
124501.0   9.6895e-05   
124650.0   0.00064315   
124801.0   0.00015836   
124951.0   0.00047883   
125101.0   0.00013879   
125253.0   0.00027352   
125404.0   0.00029279   
125556.0   0.00015096   
125708.0   0.00059504   
125861.0   0.00019291   
126014.0   0.00016528   
126167.0   0.00012521   
126321.0   0.00040579   
126475.0   0.00059844   
126629.0   0.00031589   
126784.0   2.7448e-05   
126939.0   9.6581e-05   
127095.0   0.00012792   
127250.0   6.2564e-05   
127407.0   0.00029503   
127564.0   0.000372   
127721.0   0.00042138   
127878.0   9.0165e-05   
128036.0   0.00013379   
128194.0   0.00025146   
128353.0   0.0   
128512.0   0.00059292   
128671.0   0.0006233   
128831.0   0.00022762   
128991.0   0.0003271   
129152.0   0.00047865   
129313.0   0.00056187   
129475.0   0.00015155   
129636.0   0.00049711   
129799.0   0.00052516   
129961.0   0.00068084   
130124.0   0.00037325   
130288.0   0.0   
130452.0   0.0003469   
130616.0   0.00038587   
130781.0   0.00034598   
130946.0   0.00018541   
131111.0   0.00052275   
131277.0   9.7129e-05   
131444.0   0.00017162   
131611.0   0.00028213   
131778.0   8.5551e-05   
131945.0   4.6433e-06   
132114.0   0.00055276   
132282.0   0.00059738   
132451.0   0.00036224   
132620.0   0.00019501   
132790.0   0.00028762   
132961.0   0.00041811   
133131.0   0.00068847   
133302.0   0.00082412   
133474.0   0.00078937   
133646.0   0.00086559   
133818.0   0.00096707   
133991.0   0.0013151   
134164.0   0.0012246   
134338.0   0.0011259   
134513.0   0.0016087   
134687.0   0.0017099   
134862.0   0.0023619   
135038.0   0.0034993   
135214.0   0.0039681   
135391.0   0.0045091   
135568.0   0.0053747   
135745.0   0.0064509   
135923.0   0.0081819   
136101.0   0.010214   
136280.0   0.012127   
136459.0   0.015472   
136639.0   0.019568   
136819.0   0.02366   
137000.0   0.029604   
137182.0   0.037725   
137363.0   0.048014   
137545.0   0.060406   
137728.0   0.076178   
137911.0   0.096999   
138095.0   0.12366   
138279.0   0.1568   
138463.0   0.19683   
138649.0   0.16261   
138834.0   0.20267   
139020.0   0.24958   
139207.0   0.30297   
139394.0   0.36056   
139582.0   0.41884   
139770.0   0.47379   
139958.0   0.52284   
140147.0   0.56361   
140337.0   0.59607   
140527.0   0.61953   
140718.0   0.63496   
140909.0   0.64521   
141101.0   0.65108   
141293.0   0.65432   
141486.0   0.6566   
141679.0   0.65852   
141873.0   0.66004   
142067.0   0.66614   
142262.0   0.67287   
142458.0   0.67956   
142654.0   0.68584   
142850.0   0.69248   
143047.0   0.70008   
143245.0   0.70799   
143443.0   0.71538   
143642.0   0.72212   
143841.0   0.72844   
144040.0   0.73502   
144241.0   0.73917   
144442.0   0.74247   
144643.0   0.74525   
144845.0   0.74847   
145048.0   0.75158   
145251.0   0.75323   
145455.0   0.75572   
145659.0   0.75985   
145864.0   0.76332   
146069.0   0.76583   
146275.0   0.76876   
146482.0   0.77048   
146689.0   0.77172   
146897.0   0.77242   
147105.0   0.77248   
147314.0   0.77303   
147524.0   0.77447   
147734.0   0.77604   
147945.0   0.77749   
148156.0   0.78142   
148368.0   0.78491   
148581.0   0.78789   
148794.0   0.79153   
149007.0   0.79592   
149222.0   0.8   
149437.0   0.80232   
149653.0   0.80366   
149869.0   0.80573   
150086.0   0.81075   
150303.0   0.81709   
150521.0   0.82144   
150740.0   0.82542   
150960.0   0.83118   
151180.0   0.83587   
151400.0   0.8388   
151622.0   0.84126   
151844.0   0.8441   
152066.0   0.84712   
152289.0   0.8493   
152514.0   0.85088   
152738.0   0.85335   
152963.0   0.85787   
153189.0   0.86276   
153416.0   0.86718   
153643.0   0.8708   
153871.0   0.87477   
154100.0   0.87884   
154329.0   0.88349   
154559.0   0.8864   
154790.0   0.88774   
155021.0   0.8888   
155253.0   0.88457   
155486.0   0.88024   
155719.0   0.87673   
155954.0   0.87349   
156188.0   0.86925   
156424.0   0.86707   
156660.0   0.86534   
156897.0   0.86463   
157135.0   0.86416   
157374.0   0.8633   
157613.0   0.86194   
157853.0   0.86054   
158093.0   0.85805   
158335.0   0.85421   
158577.0   0.85055   
158820.0   0.8473   
159063.0   0.8435   
159307.0   0.83898   
159553.0   0.83453   
159798.0   0.83109   
160045.0   0.8309   
160292.0   0.8351   
160541.0   0.83905   
160789.0   0.8428   
161039.0   0.84636   
161290.0   0.85009   
161541.0   0.85422   
161793.0   0.85561   
162046.0   0.85492   
162299.0   0.85447   
162554.0   0.85454   
162809.0   0.8544   
163065.0   0.85362   
163321.0   0.85183   
163579.0   0.85013   
163838.0   0.85438   
164097.0   0.85916   
164357.0   0.86282   
164618.0   0.86592   
164879.0   0.86985   
165142.0   0.87671   
165405.0   0.88545   
165670.0   0.89199   
165935.0   0.8973   
166201.0   0.90254   
166467.0   0.90786   
166735.0   0.91301   
167003.0   0.91879   
167273.0   0.92473   
167543.0   0.93015   
167814.0   0.93768   
168086.0   0.94595   
168359.0   0.95449   
168633.0   0.96334   
168908.0   0.97135   
169183.0   0.9798   
169459.0   0.989   
169737.0   0.99656   
170015.0   1.0   
170294.0   0.99684   
170574.0   0.99474   
170855.0   0.99347   
171137.0   0.99193   
171420.0   0.98986   
171704.0   0.9878   
171989.0   0.9876   
172274.0   0.98702   
172561.0   0.9865   
172849.0   0.98624   
173137.0   0.9851   
173427.0   0.98365   
173717.0   0.98246   
174009.0   0.9828   
174301.0   0.98426   
174595.0   0.9845   
174889.0   0.98378   
175184.0   0.98211   
175481.0   0.98046   
175778.0   0.97892   
176077.0   0.97639   
176376.0   0.97628   
176677.0   0.97685   
176978.0   0.97672   
177281.0   0.9763   
177584.0   0.97541   
177889.0   0.97413   
178195.0   0.973   
178501.0   0.96983   
178809.0   0.96508   
179118.0   0.9605   
179428.0   0.95608   
179739.0   0.9523   
180051.0   0.94858   
180364.0   0.9474   
180678.0   0.9461   
180993.0   0.9447   
181310.0   0.94431   
181627.0   0.9441   
181946.0   0.94355   
182266.0   0.94252   
182587.0   0.94044   
182909.0   0.93663   
183232.0   0.93353   
183556.0   0.93139   
183881.0   0.92992   
184208.0   0.92987   
184536.0   0.92925   
184865.0   0.92862   
185195.0   0.92804   
185526.0   0.92678   
185859.0   0.92459   
186192.0   0.92237   
186527.0   0.91957   
186863.0   0.91629   
187201.0   0.91312   
187539.0   0.90999   
187879.0   0.907   
188220.0   0.90809   
188562.0   0.90883   
188906.0   0.90908   
189250.0   0.91071   
189596.0   0.91366   
189944.0   0.91686   
190292.0   0.91705   
190642.0   0.91376   
190993.0   0.90936   
191345.0   0.90539   
191699.0   0.90266   
192054.0   0.90149   
192410.0   0.90166   
192768.0   0.90051   
193127.0   0.89748   
193487.0   0.89641   
193849.0   0.89656   
194212.0   0.8982   
194576.0   0.89921   
194942.0   0.89871   
195309.0   0.89204   
195678.0   0.88408   
196048.0   0.87479   
196419.0   0.8646   
196792.0   0.85509   
197166.0   0.84324   
197541.0   0.82938   
197918.0   0.81664   
198297.0   0.80508   
198677.0   0.79451   
199058.0   0.78672   
199441.0   0.77786   
199825.0   0.76794   
200211.0   0.76821   
200598.0   0.77755   
200987.0   0.78669   
201377.0   0.79473   
201769.0   0.79948   
202162.0   0.80189   
202557.0   0.80539   
202953.0   0.81117   
203351.0   0.81705   
203751.0   0.82229   
204152.0   0.8275   
204555.0   0.83267   
204959.0   0.84093   
205365.0   0.84014   
205772.0   0.83788   
206181.0   0.83515   
206592.0   0.83228   
207004.0   0.82969   
207418.0   0.82747   
207834.0   0.82382   
208251.0   0.81809   
208670.0   0.81228   
209091.0   0.80671   
209513.0   0.8019   
209938.0   0.7981   
210364.0   0.79844   
210791.0   0.7997   
211220.0   0.80443   
211651.0   0.8081   
212084.0   0.81106   
212519.0   0.81432   
212955.0   0.81992   
213393.0   0.82563   
213833.0   0.83265   
214275.0   0.83751   
214719.0   0.83842   
215164.0   0.83912   
215612.0   0.84161   
216061.0   0.84589   
216512.0   0.85109   
216965.0   0.85558   
217420.0   0.85957   
217876.0   0.86223   
218335.0   0.86226   
218796.0   0.86227   
219258.0   0.86159   
219723.0   0.86153   
220189.0   0.85986   
220658.0   0.85583   
221128.0   0.8529   
221601.0   0.85044   
222075.0   0.84793   
222552.0   0.84623   
223030.0   0.8459   
223511.0   0.84561   
223994.0   0.84404   
224479.0   0.84183   
224966.0   0.84016   
225455.0   0.83595   
225946.0   0.83297   
226439.0   0.82833   
226935.0   0.82163   
227432.0   0.81615   
227932.0   0.81527   
228434.0   0.81461   
228939.0   0.81237   
229445.0   0.80759   
229954.0   0.80347   
230465.0   0.80923   
230978.0   0.8175   
231494.0   0.82461   
232012.0   0.828   
232532.0   0.82999   
233054.0   0.83297   
233579.0   0.83574   
234107.0   0.8372   
234636.0   0.83946   
235168.0   0.83693   
235703.0   0.82372   
236240.0   0.81349   
236779.0   0.8031   
237321.0   0.79332   
237865.0   0.78354   
238412.0   0.77373   
238961.0   0.76332   
239513.0   0.75174   
240068.0   0.7376   
240625.0   0.72913   
241184.0   0.7221   
241746.0   0.71403   
242311.0   0.70486   
242879.0   0.69458   
243449.0   0.6846   
244022.0   0.67419   
244597.0   0.66116   
245175.0   0.6494   
245756.0   0.64242   
246340.0   0.63536   
246927.0   0.62824   
247516.0   0.6209   
248108.0   0.61338   
248703.0   0.60791   
249301.0   0.60347   
249902.0   0.59844   
250505.0   0.57314   
251112.0   0.54485   
251721.0   0.51713   
252334.0   0.49021   
252949.0   0.46363   
253568.0   0.43744   
254189.0   0.41213   
254814.0   0.38718   
255441.0   0.3711   
256072.0   0.35873   
256706.0   0.34582   
257343.0   0.33313   
257983.0   0.31852   
258626.0   0.30153   
259273.0   0.28552   
259923.0   0.2707   
260576.0   0.2586   
261232.0   0.24644   
261892.0   0.2354   
262555.0   0.22516   
263221.0   0.21956   
263891.0   0.21356   
264564.0   0.20801   
265241.0   0.19988   
265921.0   0.18559   
266605.0   0.17104   
267292.0   0.15661   
267982.0   0.14321   
268677.0   0.13104   
269375.0   0.11949   
270076.0   0.10912   
270781.0   0.10492   
271490.0   0.10033   
272203.0   0.095394   
272919.0   0.090497   
273639.0   0.084607   
274363.0   0.079431   
275091.0   0.075004   
275822.0   0.071729   
276558.0   0.068351   
277297.0   0.06495   
278041.0   0.061781   
278788.0   0.05875   
279540.0   0.055736   
280295.0   0.051032   
281055.0   0.043919   
281818.0   0.037327   
282586.0   0.031123   
283358.0   0.025272   
284135.0   0.019802   
284915.0   0.014706   
285700.0   0.013794   
286490.0   0.013388   
287283.0   0.0   
