#The following tables show the relative spectral response (RSR) curves of the FIS photometric bands. Filter transmittance and detector spectral responsivity are taken into account.
#These response data are for the energy dimension, i.e., \lambda * F_\lambda or 
#u * F_
#u. They are normalized at the central wavelength.
#The data shown here are 'typical' ones for every bands. Each pixel of the FIS detectors has slightly different characteristic, which we are trying to determine. Especially the long-wavelength cut-off of the LW channel varies in wide range of approx. 160--185 micron. More detailed information useful for data analysis will be provided later.
#These data are essentially  equivalent  with those provided as 'pre-launch' version. Differences are; (1) given in frequency domain, (2) normalized at the central wavelength rather than the peak.
#http://www.ir.isas.jaxa.jp/ASTRO-F/Observation/RSRF/FIS_FAD/index.html
2005400.0   0.0   
1927300.0   0.0   
1855100.0   0.0   
1788100.0   0.0   
1725700.0   0.0   
1667600.0   0.0   
1613300.0   0.0   
1562300.0   0.0   
1514500.0   0.0   
1469600.0   0.0   
1427200.0   9.8058e-06   
1387200.0   0.00021974   
1349400.0   0.00060386   
1313600.0   0.00083043   
1279600.0   0.0015588   
1247400.0   0.0052487   
1216700.0   0.014744   
1187500.0   0.0339   
1159700.0   0.075502   
1133100.0   0.15016   
1107800.0   0.26518   
1083500.0   0.53055   
1060300.0   0.85271   
1038100.0   1.0742   
1016800.0   1.2052   
996300.0   1.1995   
976640.0   1.1627   
957750.0   1.1476   
939570.0   1.0521   
922060.0   1.0142   
905200.0   0.99951   
888950.0   0.98781   
873260.0   1.0023   
858120.0   1.0144   
843500.0   0.96685   
829370.0   0.85727   
815700.0   0.69936   
802480.0   0.54133   
789670.0   0.5131   
777270.0   0.50321   
765260.0   0.5159   
753610.0   0.41997   
742300.0   0.46619   
731340.0   0.49452   
720690.0   0.51239   
710350.0   0.47856   
700300.0   0.47271   
690530.0   0.44645   
681030.0   0.42449   
671780.0   0.40699   
662790.0   0.33136   
654030.0   0.36453   
645500.0   0.34832   
637190.0   0.35223   
629090.0   0.32737   
621200.0   0.26308   
613500.0   0.22031   
605990.0   0.20136   
598660.0   0.191   
591510.0   0.19326   
584520.0   0.18872   
577700.0   0.20608   
571030.0   0.2065   
564520.0   0.16796   
558160.0   0.1409   
551930.0   0.11623   
545850.0   0.088034   
539890.0   0.070047   
534070.0   0.069451   
528370.0   0.097442   
522790.0   0.076686   
517320.0   0.033348   
511970.0   0.015353   
506730.0   0.012795   
501600.0   0.023313   
496560.0   0.040031   
491630.0   0.043642   
486800.0   0.056345   
482060.0   0.055371   
477410.0   0.046041   
472850.0   0.046049   
468370.0   0.043024   
463980.0   0.033447   
459670.0   0.019263   
455440.0   0.010623   
451290.0   0.0069675   
447210.0   0.0043461   
443210.0   0.0028245   
439280.0   0.0021504   
435410.0   0.0014241   
431620.0   0.0010063   
427880.0   0.00068078   
424220.0   0.00051057   
420610.0   0.00035851   
417070.0   0.00029053   
413580.0   0.00019216   
410160.0   0.0001185   
406790.0   8.989e-05   
403470.0   6.6521e-05   
400210.0   0.0   
