#The following tables show the relative spectral response (RSR) curves of the FIS photometric bands. Filter transmittance and detector spectral responsivity are taken into account.
#These response data are for the energy dimension, i.e., \lambda * F_\lambda or 
#u * F_
#u. They are normalized at the central wavelength.
#The data shown here are 'typical' ones for every bands. Each pixel of the FIS detectors has slightly different characteristic, which we are trying to determine. Especially the long-wavelength cut-off of the LW channel varies in wide range of approx. 160--185 micron. More detailed information useful for data analysis will be provided later.
#These data are essentially  equivalent  with those provided as 'pre-launch' version. Differences are; (1) given in frequency domain, (2) normalized at the central wavelength rather than the peak.
#http://www.ir.isas.jaxa.jp/ASTRO-F/Observation/RSRF/FIS_FAD/index.html
2222200.0   0.0   
2197600.0   0.0   
2173400.0   0.0   
2149800.0   0.0   
2126700.0   0.0   
2104100.0   0.0027219   
2082000.0   0.00845   
2060400.0   0.016992   
2039100.0   0.026791   
2018300.0   0.041966   
1998000.0   0.053587   
1978000.0   0.06599   
1958500.0   0.078098   
1939300.0   0.092728   
1920500.0   0.11506   
1902000.0   0.13633   
1883900.0   0.17824   
1866200.0   0.25147   
1848700.0   0.32151   
1831600.0   0.31284   
1814800.0   0.29195   
1798400.0   0.31435   
1782200.0   0.42868   
1766300.0   0.60846   
1750700.0   0.62875   
1735300.0   0.55359   
1720200.0   0.53831   
1705400.0   0.55254   
1690900.0   0.56859   
1676500.0   0.59429   
1662500.0   0.59552   
1648600.0   0.61846   
1635000.0   0.6593   
1621600.0   0.69283   
1608400.0   0.75023   
1595500.0   0.83668   
1582700.0   0.9534   
1570200.0   1.0445   
1557800.0   1.0459   
1545700.0   1.0703   
1533700.0   1.0572   
1521900.0   1.0907   
1510300.0   1.1904   
1498900.0   1.231   
1487600.0   1.2639   
1476500.0   1.1914   
1465600.0   1.2041   
1454800.0   1.1688   
1444200.0   1.1397   
1433700.0   1.1284   
1423400.0   1.0435   
1413300.0   1.0945   
1403300.0   1.038   
1393400.0   0.91271   
1383600.0   0.86947   
1374000.0   0.84163   
1364600.0   0.88027   
1355200.0   0.88815   
1346000.0   0.86341   
1336900.0   0.76439   
1328000.0   0.74981   
1319100.0   0.80978   
1310400.0   0.83168   
1301800.0   0.83774   
1293300.0   0.79048   
1284900.0   0.75778   
1276600.0   0.75104   
1268400.0   0.75179   
1260300.0   0.72134   
1252400.0   0.59711   
1244500.0   0.57266   
1236700.0   0.58414   
1229100.0   0.5383   
1221500.0   0.48827   
1214000.0   0.43748   
1206600.0   0.47294   
1199300.0   0.45735   
1192100.0   0.44562   
1184900.0   0.42094   
1177900.0   0.39194   
1170900.0   0.40422   
1164000.0   0.37329   
1157200.0   0.36515   
1150500.0   0.30962   
1143800.0   0.21535   
1137300.0   0.17053   
1130800.0   0.15703   
1124400.0   0.10597   
1118000.0   0.05931   
1111700.0   0.031758   
1105500.0   0.016922   
1099400.0   0.0084191   
1093300.0   0.0037752   
1087300.0   0.0014545   
1081400.0   0.00069576   
1075500.0   0.00049086   
1069700.0   0.0002506   
1063900.0   0.00010367   
1058300.0   5.2249e-05   
1052600.0   0.0   
