#The following tables show the relative spectral response (RSR) curves of the FIS photometric bands. Filter transmittance and detector spectral responsivity are taken into account.
#These response data are for the energy dimension, i.e., \lambda * F_\lambda or 
#u * F_
#u. They are normalized at the central wavelength.
#The data shown here are 'typical' ones for every bands. Each pixel of the FIS detectors has slightly different characteristic, which we are trying to determine. Especially the long-wavelength cut-off of the LW channel varies in wide range of approx. 160--185 micron. More detailed information useful for data analysis will be provided later.
#These data are essentially  equivalent  with those provided as 'pre-launch' version. Differences are; (1) given in frequency domain, (2) normalized at the central wavelength rather than the peak.
#http://www.ir.isas.jaxa.jp/ASTRO-F/Observation/RSRF/FIS_FAD/index.html
2005400.0   0.0   
1927300.0   0.0   
1855100.0   0.0   
1788100.0   0.0   
1725700.0   0.0   
1667600.0   0.0   
1613300.0   0.0   
1562300.0   0.0   
1514500.0   0.0   
1469600.0   0.0   
1427200.0   0.0   
1387200.0   0.0   
1349400.0   0.0   
1313600.0   0.0   
1279600.0   0.0   
1247400.0   0.0   
1216700.0   0.0   
1187500.0   0.0   
1159700.0   0.0   
1133100.0   0.0   
1107800.0   0.0   
1083500.0   0.0   
1060300.0   0.0   
1038100.0   0.00071326   
1016800.0   0.0029936   
996300.0   0.0015841   
976640.0   0.0040804   
957750.0   0.0049678   
939570.0   0.00051591   
922060.0   0.0015406   
905200.0   0.0045456   
888950.0   0.0045075   
873260.0   0.0026523   
858120.0   0.0040412   
843500.0   0.018444   
829370.0   0.051025   
815700.0   0.098515   
802480.0   0.16932   
789670.0   0.33069   
777270.0   0.42944   
765260.0   0.41521   
753610.0   0.58745   
742300.0   0.75295   
731340.0   0.87555   
720690.0   0.98442   
710350.0   1.0837   
700300.0   1.0981   
690530.0   1.094   
681030.0   1.0675   
671780.0   0.99912   
662790.0   0.99804   
654030.0   1.0144   
645500.0   0.98465   
637190.0   0.97231   
629090.0   0.96749   
621200.0   0.73329   
613500.0   0.63491   
605990.0   0.57345   
598660.0   0.56499   
591510.0   0.53642   
584520.0   0.59273   
577700.0   0.59571   
571030.0   0.57333   
564520.0   0.46141   
558160.0   0.40094   
551930.0   0.29464   
545850.0   0.23885   
539890.0   0.18521   
534070.0   0.21545   
528370.0   0.2814   
522790.0   0.17287   
517320.0   0.075   
511970.0   0.042646   
506730.0   0.038655   
501600.0   0.068763   
496560.0   0.10792   
491630.0   0.13457   
486800.0   0.14724   
482060.0   0.12658   
477410.0   0.12644   
472850.0   0.1182   
468370.0   0.10629   
463980.0   0.082091   
459670.0   0.041433   
455440.0   0.022333   
451290.0   0.0095341   
447210.0   0.0036675   
443210.0   0.0   
439280.0   0.0   
435410.0   0.0017489   
431620.0   0.00047231   
427880.0   0.0018516   
424220.0   0.00023885   
420610.0   0.00066674   
417070.0   0.0   
413580.0   0.00074967   
410160.0   0.00026729   
406790.0   0.00018774   
403470.0   8.402e-05   
400210.0   0.0   
