# QE corrected
# ING Filter Throughput Data
#Serial Number : 215
#Filtername    : WFCSloanI
#Filtersystem  : Sloan Gunn
#Passband      : i
#FWHM          : 1519
#Cosmetics     :
#Measured      : 2005-03-02 12:02:59
#Wavelength Throughput
#nm %
#wave   resp   
6510.0   0.00037505   
6515.0   0.000524755   
6520.0   0.00014984   
6525.0   0.0   
6530.0   0.00014966   
6535.0   0.00029914   
6540.0   7.474e-05   
6545.0   -7.4695e-05   
6550.0   0.0002986   
6555.0   0.000223815   
6560.0   0.00022368   
6565.0   0.00029806   
6570.0   -7.447e-05   
6575.0   0.000372125   
6580.0   0.0003719   
6585.0   0.000371675   
6590.0   -0.00037145   
6595.0   -0.000222735   
6600.0   7.42e-05   
6605.0   0.000370725   
6610.0   -7.409e-05   
6615.0   0.000222105   
6620.0   7.398e-05   
6625.0   0.00103495   
6630.0   0.00132966   
6635.0   0.00191919   
6640.0   0.00162272   
6645.0   0.00324302   
6650.0   0.00390345   
6655.0   0.00574041   
6660.0   0.00728046   
6665.0   0.009626535   
6670.0   0.01343769   
6675.0   0.016436   
6680.0   0.02192268   
6685.0   0.02813376   
6690.0   0.03726389   
6695.0   0.04711182   
6700.0   0.0611847   
6705.0   0.07786597   
6710.0   0.09919341   
6715.0   0.12369776   
6720.0   0.15691064   
6725.0   0.195171   
6730.0   0.24705415   
6735.0   0.301112815   
6740.0   0.37630614   
6745.0   0.458210155   
6750.0   0.5645841   
6755.0   0.676450845   
6760.0   0.82132472   
6765.0   0.9771975   
6770.0   1.17514551   
6775.0   1.37972975   
6780.0   1.6278388   
6785.0   1.89736218   
6790.0   2.21630085   
6795.0   2.5493059   
6800.0   2.939832   
6805.0   3.337180625   
6810.0   3.819725   
6815.0   4.2918740625   
6820.0   4.8432685   
6825.0   5.4000043125   
6830.0   6.0419985   
6835.0   6.6672634375   
6840.0   7.3710065   
6845.0   8.06700825   
6850.0   8.86720175   
6855.0   9.6043675   
6860.0   10.46769375   
6865.0   11.283361125   
6870.0   12.18954475   
6875.0   13.0576633125   
6880.0   13.97848   
6885.0   14.8895684375   
6890.0   15.896482875   
6895.0   16.79304275   
6900.0   17.82468425   
6905.0   18.783223875   
6910.0   19.783263125   
6915.0   20.7469979375   
6920.0   21.816366   
6925.0   22.720460875   
6930.0   23.75479975   
6935.0   24.6829921875   
6940.0   25.6855075   
6945.0   26.6334189375   
6950.0   27.599166375   
6955.0   28.4840495   
6960.0   29.41666   
6965.0   30.290350875   
6970.0   31.177456375   
6975.0   32.0064481875   
6980.0   32.8942395   
6985.0   33.6332084375   
6990.0   34.518752125   
6995.0   35.2752133125   
7000.0   36.0640365   
7005.0   36.772424055   
7010.0   37.608662525   
7015.0   38.32345783   
7020.0   39.05291992   
7025.0   39.808966725   
7030.0   40.55987052   
7035.0   41.26270673   
7040.0   42.03911936   
7045.0   42.703567265   
7050.0   43.46257455   
7055.0   44.1804754125   
7060.0   44.89351723   
7065.0   45.602258905   
7070.0   46.36264962   
7075.0   46.9785897   
7080.0   47.68032434   
7085.0   48.3266529025   
7090.0   48.960140145   
7095.0   49.54173146   
7100.0   50.21844015   
7105.0   50.7053269475   
7110.0   51.28725487   
7115.0   51.7586683875   
7120.0   52.12430532   
7125.0   52.478601875   
7130.0   52.990748705   
7135.0   53.17773098   
7140.0   53.4490855   
7145.0   53.72438518   
7150.0   53.88054185   
7155.0   54.0103267825   
7160.0   54.19711752   
7165.0   54.2670439375   
7170.0   54.372810095   
7175.0   54.3897671875   
7180.0   54.47432107   
7185.0   54.499967505   
7190.0   54.506977745   
7195.0   54.5846757925   
7200.0   54.5998484   
7205.0   54.69477739   
7210.0   54.72679344   
7215.0   54.77473653   
7220.0   55.01031048   
7225.0   55.0789431   
7230.0   55.20140886   
7235.0   55.33231319   
7240.0   55.53084672   
7245.0   55.70084728   
7250.0   56.0559067   
7255.0   56.21272563   
7260.0   56.44111452   
7265.0   56.69808144   
7270.0   57.00446412   
7275.0   57.24688125   
7280.0   57.5793572   
7285.0   57.80877417   
7290.0   57.96396924   
7295.0   58.29880902   
7300.0   58.5124644   
7305.0   58.67587818   
7310.0   58.86987132   
7315.0   59.05066656   
7320.0   59.12205728   
7325.0   59.15133105   
7330.0   59.20828146   
7335.0   59.11769124   
7340.0   59.12312204   
7345.0   59.04543309   
7350.0   58.8642541   
7355.0   58.72572635   
7360.0   58.5991752   
7365.0   58.33617073   
7370.0   58.01156282   
7375.0   57.91609395   
7380.0   57.63132676   
7385.0   57.39507165   
7390.0   57.23032608   
7395.0   56.96553398   
7400.0   56.698624   
7405.0   56.4637461225   
7410.0   56.26300527   
7415.0   55.9745449475   
7420.0   55.90538163   
7425.0   55.7618442875   
7430.0   55.64316835   
7435.0   55.5451279575   
7440.0   55.45365274   
7445.0   55.461191335   
7450.0   55.4575584   
7455.0   55.445888085   
7460.0   55.4507419   
7465.0   55.5578902125   
7470.0   55.66937359   
7475.0   55.6883714625   
7480.0   55.86930996   
7485.0   55.94078333   
7490.0   56.103557055   
7495.0   56.276556375   
7500.0   56.3736547   
7505.0   56.49665154   
7510.0   56.743891065   
7515.0   56.8499998125   
7520.0   56.87781878   
7525.0   57.063405   
7530.0   57.100228065   
7535.0   57.101258095   
7540.0   57.21182817   
7545.0   57.093582695   
7550.0   57.121639275   
7555.0   57.0504995775   
7560.0   56.9423848   
7565.0   56.8769993175   
7570.0   56.79864912   
7575.0   56.6438354625   
7580.0   56.46805647   
7585.0   56.35670211   
7590.0   56.123003255   
7595.0   55.92393814   
7600.0   55.7602542   
7605.0   55.559803605   
7610.0   55.34744883   
7615.0   55.2248422425   
7620.0   55.15122888   
7625.0   54.866843625   
7630.0   54.71792937   
7635.0   54.640511865   
7640.0   54.4352064   
7645.0   54.3331411425   
7650.0   54.269501475   
7655.0   54.2342071575   
7660.0   54.16166088   
7665.0   54.1296737775   
7670.0   54.09195744   
7675.0   54.045420975   
7680.0   54.17960262   
7685.0   54.0265728975   
7690.0   54.203244255   
7695.0   54.1459393425   
7700.0   54.05748225   
7705.0   54.25311636   
7710.0   54.23860968   
7715.0   54.1843100025   
7720.0   54.30469464   
7725.0   54.160804425   
7730.0   54.160521765   
7735.0   54.1193917275   
7740.0   54.12489606   
7745.0   54.0398399925   
7750.0   53.9836785   
7755.0   53.767649355   
7760.0   53.70648654   
7765.0   53.44337646   
7770.0   53.32302993   
7775.0   53.1227421375   
7780.0   52.91589978   
7785.0   52.788994605   
7790.0   52.479128625   
7795.0   52.233407685   
7800.0   51.9594588   
7805.0   51.8154366375   
7810.0   51.438420795   
7815.0   51.1233070425   
7820.0   50.86230327   
7825.0   50.6833726875   
7830.0   50.347393965   
7835.0   50.1487504425   
7840.0   49.88054448   
7845.0   49.700176275   
7850.0   49.48339725   
7855.0   49.2993740175   
7860.0   49.25959737   
7865.0   49.1241129975   
7870.0   48.820184655   
7875.0   48.715421175   
7880.0   48.76999812   
7885.0   48.59080149   
7890.0   48.664038885   
7895.0   48.570573825   
7900.0   48.612549   
7905.0   48.5397292575   
7910.0   48.528611055   
7915.0   48.63981249   
7920.0   48.60506154   
7925.0   48.5957302875   
7930.0   48.6555876   
7935.0   48.7941402225   
7940.0   48.80398419   
7945.0   48.76435839   
7950.0   48.868515075   
7955.0   48.7476960075   
7960.0   48.71640768   
7965.0   48.8061984075   
7970.0   48.693947445   
7975.0   48.4872399375   
7980.0   48.53845755   
7985.0   48.492139275   
7990.0   48.328533435   
7995.0   48.192195975   
8000.0   48.1066776   
8005.0   47.8033537725   
8010.0   47.702522355   
8015.0   47.5399894725   
8020.0   47.20615602   
8025.0   46.995852225   
8030.0   46.768474845   
8035.0   46.48277205   
8040.0   46.36484724   
8045.0   46.08152127   
8050.0   45.81199455   
8055.0   45.64343874   
8060.0   45.4365261   
8065.0   45.207538335   
8070.0   44.939170305   
8075.0   44.8933856625   
8080.0   44.63492934   
8085.0   44.471496255   
8090.0   44.348593905   
8095.0   44.20344243   
8100.0   44.0658075   
8105.0   44.07435135   
8110.0   43.835260935   
8115.0   43.874449455   
8120.0   43.7577804   
8125.0   43.7215126875   
8130.0   43.582808115   
8135.0   43.6497250275   
8140.0   43.61142603   
8145.0   43.6433524725   
8150.0   43.780448025   
8155.0   43.5577587525   
8160.0   43.6716531   
8165.0   43.6451877225   
8170.0   43.61761659   
8175.0   43.674376275   
8180.0   43.59364893   
8185.0   43.5290637075   
8190.0   43.42780638   
8195.0   43.45575093   
8200.0   43.233036   
8205.0   43.2659971225   
8210.0   43.209171165   
8215.0   43.057556175   
8220.0   42.99195687   
8225.0   42.716634025   
8230.0   42.723789345   
8235.0   42.412817265   
8240.0   42.2844436   
8245.0   42.1000155   
8250.0   41.85428425   
8255.0   41.64757179   
8260.0   41.2936926   
8265.0   41.1572991025   
8270.0   40.960279185   
8275.0   40.6461871125   
8280.0   40.47482904   
8285.0   39.952584355   
8290.0   39.87138711   
8295.0   39.6234784175   
8300.0   39.4773782   
8305.0   39.2255837925   
8310.0   38.828852535   
8315.0   38.6613172575   
8320.0   38.4149241   
8325.0   38.180939975   
8330.0   38.06015896   
8335.0   37.9540149525   
8340.0   37.72487397   
8345.0   37.53145588   
8350.0   37.35265725   
8355.0   37.19225952   
8360.0   37.03385404   
8365.0   37.03875318   
8370.0   36.828734855   
8375.0   36.8939921875   
8380.0   36.6928938   
8385.0   36.7833115725   
8390.0   36.56291766   
8395.0   36.76971564   
8400.0   36.5169106   
8405.0   36.68583835   
8410.0   36.84707055   
8415.0   36.750298875   
8420.0   36.7036828   
8425.0   36.841274325   
8430.0   36.81959765   
8435.0   36.5910151   
8440.0   36.4473333   
8445.0   36.1874541   
8450.0   35.82730385   
8455.0   35.25780195   
8460.0   34.3476592   
8465.0   33.3534297   
8470.0   31.9107735   
8475.0   30.376162425   
8480.0   28.3815178   
8485.0   26.399842425   
8490.0   24.0508901   
8495.0   21.80122045   
8500.0   19.2300288   
8505.0   17.028356125   
8510.0   14.73730685   
8515.0   12.75502995   
8520.0   10.8825681   
8525.0   9.28925025   
8530.0   7.7693787   
8535.0   6.623350125   
8540.0   5.4762576   
8545.0   4.65184545   
8550.0   3.86638625   
8555.0   3.2186573   
8560.0   2.7192717   
8565.0   2.32557745   
8570.0   1.91558555   
8575.0   1.625106825   
8580.0   1.3794144   
8585.0   1.188768025   
8590.0   1.0007766   
8595.0   0.8686348   
8600.0   0.7321087   
8605.0   0.6307432125   
8610.0   0.5308125   
8615.0   0.475177625   
8620.0   0.39835915   
8625.0   0.348251625   
8630.0   0.3013644   
8635.0   0.2489995625   
8640.0   0.2327076   
8645.0   0.20478605   
8650.0   0.17227975   
8655.0   0.1507204125   
8660.0   0.12778675   
8665.0   0.1209970375   
8670.0   0.09574155   
8675.0   0.094135925   
8680.0   0.0747466   
8685.0   0.070347   
8690.0   0.067953025   
8695.0   0.0574209375   
8700.0   0.05048745   
8705.0   0.0473069125   
8710.0   0.036721375   
8715.0   0.03601125   
8720.0   0.0311656   
8725.0   0.0290539375   
8730.0   0.023694225   
8735.0   0.027745625   
8740.0   0.01836465   
8745.0   0.0189879375   
8750.0   0.018651925   
8755.0   0.02341175   
8760.0   0.014427   
8765.0   0.0084992375   
8770.0   0.010772625   
8775.0   0.0102899625   
8780.0   0.00619   
8785.0   0.0144510625   
8790.0   0.009171825   
8795.0   0.0096193125   
8800.0   0.0041344   
8805.0   0.0133232   
8810.0   0.0081432   
8815.0   0.00507676   
8820.0   0.00712096   
8825.0   0.0033972   
8830.0   0.00679672   
8835.0   0.00567552   
8840.0   0.00612352   
8845.0   0.01556892   
8850.0   0.0081468   
8855.0   0.00255904   
8860.0   0.00744272   
8865.0   0.00348964   
8870.0   0.00206784   
8875.0   0.008008   
8880.0   0.02571744   
8885.0   0.00360172   
8890.0   0.00689056   
8895.0   0.00382432   
8900.0   0.007168   
8905.0   0.00496264   
8910.0   -0.00746744   
8915.0   0.0156166   
8920.0   0.01769536   
8925.0   0.0029044   
8930.0   0.00019096   
8935.0   0.00602952   
8940.0   0.00316368   
8945.0   -0.00454948   
8950.0   0.0173128   
8955.0   0.01317992   
8960.0   0.00924288   
8965.0   -0.00880452   
8970.0   0.0077644   
8975.0   -2.62e-05   
8980.0   -0.00239936   
8985.0   0.0166144   
8990.0   0.01351432   
8995.0   0.00776744   
9000.0   0.0100096   
