# The following tables show the relative spectral response (RSR) curves, which take account of the photon to energy conversion of the detector quantum efficiency by multiplying by the wavelengths (FAD = Filter and Detector).
#Thus these RSRs can directly be integrated over spectra given as $F_\lambda$ to obtain the in-band fluxes.
#These RSRs have been prepared in collaboration with Martin Cohen and assure the common calibration of the IRC with other missions and ground-based instruments, including Subaru/COMICS, in the framework of the absolute calibration network provided by Martin Cohen and his colleagues.
#The present RSRs are prepared on the basis of the best laboratory measurements of the optical elements of the IRC
#http://www.ir.isas.jaxa.jp/ASTRO-F/Observation/RSRF/IRC_FAD/index.html
#wave   response   
40000.0   0.0   
40011.0   1.9479e-05   
40027.0   1.9177e-05   
40042.0   1.9282e-05   
40058.0   1.9886e-05   
40073.0   2.0293e-05   
40089.0   1.9999e-05   
40104.0   1.9546e-05   
40120.0   1.9727e-05   
40135.0   2.0185e-05   
40151.0   2.0345e-05   
40166.0   2.0383e-05   
40182.0   2.0563e-05   
40197.0   2.0676e-05   
40213.0   2.054e-05   
40229.0   2.0425e-05   
40244.0   2.0367e-05   
40260.0   2.0235e-05   
40275.0   2.0242e-05   
40291.0   2.0371e-05   
40307.0   2.0357e-05   
40322.0   2.0349e-05   
40338.0   2.043e-05   
40354.0   2.0371e-05   
40369.0   2.0352e-05   
40385.0   2.0627e-05   
40401.0   2.0854e-05   
40417.0   2.0896e-05   
40432.0   2.0824e-05   
40448.0   2.0789e-05   
40464.0   2.098e-05   
40480.0   2.1188e-05   
40496.0   2.1229e-05   
40511.0   2.0962e-05   
40527.0   2.0763e-05   
40543.0   2.0779e-05   
40559.0   2.052e-05   
40575.0   2.0323e-05   
40591.0   2.0786e-05   
40607.0   2.1459e-05   
40622.0   2.1647e-05   
40638.0   2.1338e-05   
40654.0   2.1011e-05   
40670.0   2.1141e-05   
40686.0   2.1586e-05   
40702.0   2.1875e-05   
40718.0   2.2173e-05   
40734.0   2.2465e-05   
40750.0   2.2191e-05   
40766.0   2.1605e-05   
40782.0   2.1398e-05   
40798.0   2.1702e-05   
40814.0   2.2073e-05   
40830.0   2.2169e-05   
40846.0   2.2242e-05   
40863.0   2.234e-05   
40879.0   2.2033e-05   
40895.0   2.1604e-05   
40911.0   2.1485e-05   
40927.0   2.1487e-05   
40943.0   2.1563e-05   
40959.0   2.1709e-05   
40976.0   2.1647e-05   
40992.0   2.1605e-05   
41008.0   2.1811e-05   
41024.0   2.2067e-05   
41040.0   2.2165e-05   
41057.0   2.2067e-05   
41073.0   2.1966e-05   
41089.0   2.2098e-05   
41105.0   2.2198e-05   
41122.0   2.1972e-05   
41138.0   2.1786e-05   
41154.0   2.207e-05   
41171.0   2.2558e-05   
41187.0   2.2616e-05   
41203.0   2.2363e-05   
41220.0   2.2313e-05   
41236.0   2.2462e-05   
41253.0   2.2636e-05   
41269.0   2.2655e-05   
41286.0   2.2454e-05   
41302.0   2.2393e-05   
41318.0   2.2582e-05   
41335.0   2.2489e-05   
41351.0   2.2102e-05   
41368.0   2.1914e-05   
41384.0   2.2144e-05   
41401.0   2.2504e-05   
41417.0   2.2502e-05   
41434.0   2.2265e-05   
41451.0   2.2171e-05   
41467.0   2.2216e-05   
41484.0   2.232e-05   
41500.0   2.2471e-05   
41517.0   2.269e-05   
41534.0   2.2746e-05   
41550.0   2.2366e-05   
41567.0   2.207e-05   
41583.0   2.2227e-05   
41600.0   2.2311e-05   
41617.0   2.1876e-05   
41634.0   2.1313e-05   
41650.0   2.1468e-05   
41667.0   2.221e-05   
41684.0   2.2708e-05   
41701.0   2.2771e-05   
41717.0   2.2565e-05   
41734.0   2.2394e-05   
41751.0   2.2691e-05   
41768.0   2.2995e-05   
41785.0   2.2879e-05   
41801.0   2.2841e-05   
41818.0   2.2951e-05   
41835.0   2.2722e-05   
41852.0   2.234e-05   
41869.0   2.2204e-05   
41886.0   2.2472e-05   
41903.0   2.2892e-05   
41920.0   2.2958e-05   
41937.0   2.2668e-05   
41954.0   2.2446e-05   
41971.0   2.273e-05   
41988.0   2.293e-05   
42005.0   2.2419e-05   
42022.0   2.2051e-05   
42039.0   2.2499e-05   
42056.0   2.2939e-05   
42073.0   2.2931e-05   
42090.0   2.2941e-05   
42107.0   2.3089e-05   
42124.0   2.3183e-05   
42141.0   2.3172e-05   
42158.0   2.3172e-05   
42175.0   2.3118e-05   
42193.0   2.2932e-05   
42210.0   2.2789e-05   
42227.0   2.2502e-05   
42244.0   2.235e-05   
42261.0   2.3021e-05   
42279.0   2.3543e-05   
42296.0   2.3423e-05   
42313.0   2.3199e-05   
42330.0   2.3149e-05   
42348.0   2.2833e-05   
42365.0   2.1967e-05   
42382.0   2.1351e-05   
42400.0   2.1217e-05   
42417.0   2.1184e-05   
42434.0   2.1355e-05   
42452.0   2.1769e-05   
42469.0   2.2212e-05   
42486.0   2.2779e-05   
42504.0   2.3165e-05   
42521.0   2.26e-05   
42539.0   2.205e-05   
42556.0   2.2257e-05   
42574.0   2.2048e-05   
42591.0   2.1375e-05   
42609.0   2.0982e-05   
42626.0   2.1186e-05   
42644.0   2.1423e-05   
42661.0   2.1164e-05   
42679.0   2.0967e-05   
42696.0   2.122e-05   
42714.0   2.1508e-05   
42731.0   2.1309e-05   
42749.0   2.0781e-05   
42767.0   2.0458e-05   
42784.0   2.0289e-05   
42802.0   1.9939e-05   
42820.0   1.9655e-05   
42837.0   1.9633e-05   
42855.0   2.0032e-05   
42873.0   2.0553e-05   
42890.0   2.048e-05   
42908.0   2.0045e-05   
42926.0   1.9406e-05   
42944.0   1.899e-05   
42962.0   1.894e-05   
42979.0   1.8739e-05   
42997.0   1.8977e-05   
43015.0   1.9562e-05   
43033.0   1.9511e-05   
43051.0   1.9036e-05   
43069.0   1.8791e-05   
43086.0   1.892e-05   
43104.0   1.9157e-05   
43122.0   1.8969e-05   
43140.0   1.8576e-05   
43158.0   1.8297e-05   
43176.0   1.8085e-05   
43194.0   1.8e-05   
43212.0   1.7729e-05   
43230.0   1.7696e-05   
43248.0   1.7925e-05   
43266.0   1.7567e-05   
43284.0   1.696e-05   
43302.0   1.6828e-05   
43320.0   1.6992e-05   
43339.0   1.7374e-05   
43357.0   1.765e-05   
43375.0   1.735e-05   
43393.0   1.6965e-05   
43411.0   1.6832e-05   
43429.0   1.6512e-05   
43447.0   1.6024e-05   
43466.0   1.5881e-05   
43484.0   1.5962e-05   
43502.0   1.5824e-05   
43520.0   1.5438e-05   
43539.0   1.5138e-05   
43557.0   1.5133e-05   
43575.0   1.5554e-05   
43594.0   1.568e-05   
43612.0   1.5206e-05   
43630.0   1.4929e-05   
43649.0   1.4882e-05   
43667.0   1.467e-05   
43685.0   1.4532e-05   
43704.0   1.4638e-05   
43722.0   1.4698e-05   
43741.0   1.4343e-05   
43759.0   1.3605e-05   
43778.0   1.3049e-05   
43796.0   1.2997e-05   
43815.0   1.3154e-05   
43833.0   1.3147e-05   
43852.0   1.2836e-05   
43870.0   1.2401e-05   
43889.0   1.2091e-05   
43907.0   1.1917e-05   
43926.0   1.1689e-05   
43945.0   1.1323e-05   
43963.0   1.1383e-05   
43982.0   1.1826e-05   
44001.0   1.2307e-05   
44019.0   1.2462e-05   
44038.0   1.2152e-05   
44057.0   1.1672e-05   
44075.0   1.1069e-05   
44094.0   1.0396e-05   
44113.0   1.0046e-05   
44132.0   1.0104e-05   
44150.0   1.0263e-05   
44169.0   1.0352e-05   
44188.0   1.007e-05   
44207.0   9.6239e-06   
44226.0   9.5573e-06   
44245.0   9.4336e-06   
44263.0   9.0447e-06   
44282.0   8.8636e-06   
44301.0   8.8869e-06   
44320.0   8.7924e-06   
44339.0   8.4666e-06   
44358.0   7.9597e-06   
44377.0   7.593e-06   
44396.0   7.7447e-06   
44415.0   8.0166e-06   
44434.0   7.8956e-06   
44453.0   7.6178e-06   
44472.0   7.3535e-06   
44491.0   6.8183e-06   
44510.0   6.4014e-06   
44529.0   6.7027e-06   
44549.0   7.0352e-06   
44568.0   6.5516e-06   
44587.0   5.8752e-06   
44606.0   5.207e-06   
44625.0   4.7555e-06   
44644.0   5.1951e-06   
44664.0   5.5887e-06   
44683.0   5.4346e-06   
44702.0   5.2816e-06   
44722.0   5.0144e-06   
44741.0   4.5112e-06   
44760.0   4.5009e-06   
44779.0   5.0606e-06   
44799.0   5.6096e-06   
44818.0   5.8848e-06   
44838.0   5.686e-06   
44857.0   4.8631e-06   
44876.0   4.2848e-06   
44896.0   4.1985e-06   
44915.0   4.1087e-06   
44935.0   4.0522e-06   
44954.0   4.0184e-06   
44974.0   3.5853e-06   
44993.0   3.0926e-06   
45013.0   3.3435e-06   
45032.0   3.743e-06   
45052.0   4.0308e-06   
45071.0   4.2225e-06   
45091.0   4.1326e-06   
45111.0   3.9352e-06   
45130.0   4.1704e-06   
45150.0   4.7511e-06   
45170.0   4.9871e-06   
45189.0   4.7927e-06   
45209.0   4.5692e-06   
45229.0   4.2049e-06   
45248.0   3.9235e-06   
45268.0   4.1728e-06   
45288.0   4.401e-06   
45308.0   4.1828e-06   
45327.0   3.9681e-06   
45347.0   4.126e-06   
45367.0   4.255e-06   
45387.0   5.0475e-06   
45407.0   6.006e-06   
45427.0   6.1636e-06   
45447.0   5.9426e-06   
45467.0   5.5301e-06   
45486.0   5.0931e-06   
45506.0   4.8491e-06   
45526.0   4.7238e-06   
45546.0   4.925e-06   
45566.0   5.7517e-06   
45586.0   6.5406e-06   
45606.0   7.0969e-06   
45627.0   7.6236e-06   
45647.0   7.5276e-06   
45667.0   7.3184e-06   
45687.0   7.8631e-06   
45707.0   8.464e-06   
45727.0   8.5094e-06   
45747.0   8.5525e-06   
45768.0   7.6235e-06   
45788.0   6.3968e-06   
45808.0   6.5242e-06   
45828.0   7.3318e-06   
45848.0   8.286e-06   
45869.0   9.2552e-06   
45889.0   9.7876e-06   
45909.0   9.9436e-06   
45930.0   1.0466e-05   
45950.0   1.1523e-05   
45970.0   1.2503e-05   
45991.0   1.3207e-05   
46011.0   1.3848e-05   
46032.0   1.3968e-05   
46052.0   1.3736e-05   
46072.0   1.4375e-05   
46093.0   1.563e-05   
46113.0   1.6717e-05   
46134.0   1.7349e-05   
46155.0   1.7913e-05   
46175.0   1.8819e-05   
46196.0   1.981e-05   
46216.0   2.0411e-05   
46237.0   2.0687e-05   
46257.0   2.1258e-05   
46278.0   2.2144e-05   
46299.0   2.2635e-05   
46319.0   2.258e-05   
46340.0   2.2593e-05   
46361.0   2.2959e-05   
46382.0   2.3548e-05   
46402.0   2.4121e-05   
46423.0   2.5197e-05   
46444.0   2.6619e-05   
46465.0   2.8227e-05   
46486.0   2.9413e-05   
46506.0   3.0172e-05   
46527.0   3.1518e-05   
46548.0   3.3611e-05   
46569.0   3.5166e-05   
46590.0   3.5518e-05   
46611.0   3.6032e-05   
46632.0   3.766e-05   
46653.0   3.9452e-05   
46674.0   4.0564e-05   
46695.0   4.1473e-05   
46716.0   4.2332e-05   
46737.0   4.279e-05   
46758.0   4.3378e-05   
46779.0   4.5232e-05   
46800.0   4.8066e-05   
46821.0   5.022e-05   
46842.0   5.1204e-05   
46864.0   5.1272e-05   
46885.0   5.1948e-05   
46906.0   5.5371e-05   
46927.0   5.8476e-05   
46948.0   5.9601e-05   
46970.0   6.0852e-05   
46991.0   6.2801e-05   
47012.0   6.4929e-05   
47034.0   6.7184e-05   
47055.0   6.8983e-05   
47076.0   7.0923e-05   
47098.0   7.4367e-05   
47119.0   7.7131e-05   
47141.0   7.7915e-05   
47162.0   7.9279e-05   
47183.0   8.2761e-05   
47205.0   8.6485e-05   
47226.0   8.7679e-05   
47248.0   8.6869e-05   
47269.0   8.8474e-05   
47291.0   9.3273e-05   
47313.0   9.6566e-05   
47334.0   9.7291e-05   
47356.0   9.9868e-05   
47377.0   0.00010496   
47399.0   0.00010768   
47421.0   0.00010717   
47442.0   0.00010742   
47464.0   0.00010952   
47486.0   0.00011182   
47508.0   0.00011399   
47529.0   0.00011666   
47551.0   0.00012274   
47573.0   0.00012913   
47595.0   0.00013027   
47617.0   0.00012851   
47639.0   0.00013076   
47660.0   0.00013842   
47682.0   0.00014639   
47704.0   0.00015067   
47726.0   0.00015216   
47748.0   0.00015499   
47770.0   0.00016045   
47792.0   0.00016542   
47814.0   0.00016838   
47836.0   0.00017049   
47858.0   0.00017435   
47881.0   0.00018084   
47903.0   0.00018723   
47925.0   0.00019226   
47947.0   0.00019609   
47969.0   0.00019761   
47991.0   0.0001971   
48014.0   0.00019634   
48036.0   0.00020122   
48058.0   0.00020918   
48080.0   0.00021054   
48103.0   0.00021017   
48125.0   0.00021551   
48147.0   0.00022484   
48170.0   0.0002305   
48192.0   0.00023009   
48214.0   0.00023045   
48237.0   0.00023631   
48259.0   0.00024136   
48282.0   0.00024375   
48304.0   0.00025196   
48327.0   0.00026384   
48349.0   0.00027046   
48372.0   0.0002747   
48394.0   0.00028064   
48417.0   0.00028718   
48440.0   0.00029376   
48462.0   0.00029466   
48485.0   0.00028848   
48508.0   0.0002843   
48530.0   0.00029077   
48553.0   0.00030323   
48576.0   0.00031057   
48598.0   0.0003128   
48621.0   0.00031596   
48644.0   0.00032155   
48667.0   0.00032515   
48690.0   0.00032573   
48713.0   0.00032929   
48736.0   0.0003404   
48758.0   0.00035281   
48781.0   0.00035914   
48804.0   0.00036538   
48827.0   0.00037687   
48850.0   0.00038775   
48873.0   0.00039158   
48896.0   0.00039104   
48919.0   0.00039454   
48943.0   0.00040369   
48966.0   0.00041348   
48989.0   0.00041972   
49012.0   0.00042208   
49035.0   0.00042173   
49058.0   0.00042387   
49081.0   0.00043132   
49105.0   0.00043542   
49128.0   0.00043514   
49151.0   0.00043923   
49175.0   0.0004446   
49198.0   0.00044968   
49221.0   0.000464   
49245.0   0.00047769   
49268.0   0.00047726   
49291.0   0.00048014   
49315.0   0.00049563   
49338.0   0.00051246   
49362.0   0.00052348   
49385.0   0.00052334   
49409.0   0.00053158   
49432.0   0.00055969   
49456.0   0.00057797   
49480.0   0.00057204   
49503.0   0.00056364   
49527.0   0.0005682   
49550.0   0.00057889   
49574.0   0.00059113   
49598.0   0.0006045   
49622.0   0.00061994   
49645.0   0.00063398   
49669.0   0.00063632   
49693.0   0.00063029   
49717.0   0.00063089   
49741.0   0.00064291   
49764.0   0.00065607   
49788.0   0.00065941   
49812.0   0.0006588   
49836.0   0.00067016   
49860.0   0.00069094   
49884.0   0.00070337   
49908.0   0.00070443   
49932.0   0.0007062   
49956.0   0.00071433   
49980.0   0.00072001   
50004.0   0.0007206   
50029.0   0.00073179   
50053.0   0.00075592   
50077.0   0.00077121   
50101.0   0.00076648   
50125.0   0.00076567   
50150.0   0.00078289   
50174.0   0.00079505   
50198.0   0.0007894   
50222.0   0.00079117   
50247.0   0.00082332   
50271.0   0.00086013   
50295.0   0.00086193   
50320.0   0.00083621   
50344.0   0.00081999   
50369.0   0.00082205   
50393.0   0.00082221   
50418.0   0.00081992   
50442.0   0.00083308   
50467.0   0.0008636   
50491.0   0.00088758   
50516.0   0.00088224   
50541.0   0.00086595   
50565.0   0.00087086   
50590.0   0.00088496   
50615.0   0.00089139   
50639.0   0.00090235   
50664.0   0.00092031   
50689.0   0.00094969   
50714.0   0.0009754   
50738.0   0.00096729   
50763.0   0.00094212   
50788.0   0.00094832   
50813.0   0.0009945   
50838.0   0.0010396   
50863.0   0.0010507   
50888.0   0.0010441   
50913.0   0.0010428   
50938.0   0.0010368   
50963.0   0.0010175   
50988.0   0.0010173   
51013.0   0.0010522   
51038.0   0.0010732   
51063.0   0.0010606   
51088.0   0.0010593   
51113.0   0.0010761   
51139.0   0.0010851   
51164.0   0.001088   
51189.0   0.0010993   
51214.0   0.0011246   
51240.0   0.0011544   
51265.0   0.0011679   
51290.0   0.0011567   
51316.0   0.0011485   
51341.0   0.0011686   
51367.0   0.0011898   
51392.0   0.001186   
51418.0   0.0011729   
51443.0   0.0011642   
51469.0   0.0011525   
51494.0   0.0011405   
51520.0   0.0011652   
51545.0   0.0012324   
51571.0   0.0012945   
51597.0   0.0013125   
51622.0   0.0012793   
51648.0   0.0012334   
51674.0   0.0012206   
51699.0   0.0012336   
51725.0   0.0012452   
51751.0   0.0012473   
51777.0   0.0012534   
51803.0   0.0012728   
51829.0   0.0012805   
51855.0   0.0012503   
51881.0   0.0012148   
51906.0   0.0012169   
51932.0   0.0012312   
51959.0   0.0012339   
51985.0   0.0012459   
52011.0   0.001276   
52037.0   0.0013164   
52063.0   0.0013448   
52089.0   0.0013415   
52115.0   0.0013338   
52141.0   0.0013421   
52168.0   0.0013471   
52194.0   0.0013435   
52220.0   0.0013507   
52246.0   0.0013892   
52273.0   0.0014242   
52299.0   0.0014102   
52326.0   0.0013896   
52352.0   0.0013983   
52378.0   0.001401   
52405.0   0.0013895   
52431.0   0.0013927   
52458.0   0.0014085   
52484.0   0.0014227   
52511.0   0.0014319   
52538.0   0.0014246   
52564.0   0.0014196   
52591.0   0.001454   
52618.0   0.0014973   
52644.0   0.0015007   
52671.0   0.0014757   
52698.0   0.0014593   
52725.0   0.0014568   
52751.0   0.0014555   
52778.0   0.0014484   
52805.0   0.0014386   
52832.0   0.0014234   
52859.0   0.0013985   
52886.0   0.0014111   
52913.0   0.001473   
52940.0   0.0015132   
52967.0   0.0015167   
52994.0   0.0015065   
53021.0   0.001505   
53048.0   0.0015411   
53075.0   0.0015651   
53102.0   0.0015338   
53130.0   0.0014994   
53157.0   0.0015012   
53184.0   0.0015205   
53211.0   0.0015305   
53239.0   0.0015211   
53266.0   0.001518   
53294.0   0.0015597   
53321.0   0.0016142   
53348.0   0.0016065   
53376.0   0.0015515   
53403.0   0.0015416   
53431.0   0.001577   
53458.0   0.0015766   
53486.0   0.0015539   
53514.0   0.0015737   
53541.0   0.0016096   
53569.0   0.0016134   
53596.0   0.0015983   
53624.0   0.0016042   
53652.0   0.001643   
53680.0   0.0016767   
53707.0   0.0016662   
53735.0   0.001624   
53763.0   0.0016147   
53791.0   0.0016513   
53819.0   0.0016573   
53847.0   0.0016358   
53875.0   0.0016708   
53903.0   0.0017265   
53931.0   0.0017108   
53959.0   0.0016594   
53987.0   0.001658   
54015.0   0.0016967   
54043.0   0.0017179   
54072.0   0.0017182   
54100.0   0.0017191   
54128.0   0.001719   
54156.0   0.001721   
54185.0   0.0017361   
54213.0   0.0017473   
54241.0   0.001735   
54270.0   0.0017252   
54298.0   0.0017106   
54326.0   0.0016687   
54355.0   0.0016427   
54383.0   0.0016687   
54412.0   0.001718   
54441.0   0.0017444   
54469.0   0.0017453   
54498.0   0.0017477   
54526.0   0.0017601   
54555.0   0.0017538   
54584.0   0.0017112   
54613.0   0.0016984   
54641.0   0.0017566   
54670.0   0.0018196   
54699.0   0.0018165   
54728.0   0.0017482   
54757.0   0.0017083   
54786.0   0.0017208   
54815.0   0.001731   
54844.0   0.0017755   
54873.0   0.001849   
54902.0   0.0018702   
54931.0   0.0018431   
54960.0   0.0018106   
54989.0   0.0017994   
55018.0   0.0018104   
55047.0   0.0018186   
55077.0   0.0018063   
55106.0   0.0017844   
55135.0   0.0017818   
55164.0   0.0017936   
55194.0   0.0018137   
55223.0   0.0018451   
55253.0   0.00185   
55282.0   0.0018138   
55312.0   0.001766   
55341.0   0.0017117   
55371.0   0.0016815   
55400.0   0.0017104   
55430.0   0.0017485   
55459.0   0.0017479   
55489.0   0.001739   
55519.0   0.0017672   
55549.0   0.0018277   
55578.0   0.0018408   
55608.0   0.0017862   
55638.0   0.0017646   
55668.0   0.0018173   
55698.0   0.0018515   
55728.0   0.0018261   
55758.0   0.0018306   
55788.0   0.0018825   
55818.0   0.0018883   
55848.0   0.0018168   
55878.0   0.0017314   
55908.0   0.0017117   
55938.0   0.0017569   
55968.0   0.0017966   
55998.0   0.0017871   
56029.0   0.0017495   
56059.0   0.0017173   
56089.0   0.0016878   
56120.0   0.0016748   
56150.0   0.001698   
56180.0   0.0017273   
56211.0   0.0017429   
56241.0   0.0017204   
56272.0   0.0016742   
56302.0   0.0016725   
56333.0   0.0016673   
56364.0   0.0016249   
56394.0   0.0016284   
56425.0   0.0016976   
56456.0   0.0017735   
56486.0   0.0017756   
56517.0   0.0016929   
56548.0   0.0016207   
56579.0   0.0016076   
56610.0   0.0016321   
56641.0   0.0016529   
56672.0   0.0016406   
56703.0   0.0016265   
56734.0   0.0016738   
56765.0   0.0017377   
56796.0   0.0017268   
56827.0   0.0017154   
56858.0   0.0017439   
56889.0   0.0017162   
56921.0   0.0016332   
56952.0   0.0015735   
56983.0   0.0015898   
57014.0   0.001637   
57046.0   0.0016402   
57077.0   0.0016222   
57109.0   0.0016197   
57140.0   0.0016516   
57172.0   0.0017172   
57203.0   0.0017841   
57235.0   0.0018426   
57266.0   0.0018784   
57298.0   0.0019022   
57330.0   0.0019663   
57361.0   0.0020546   
57393.0   0.00213   
57425.0   0.0021976   
57457.0   0.0022637   
57488.0   0.0022953   
57520.0   0.0023544   
57552.0   0.0025052   
57584.0   0.0026561   
57616.0   0.0028135   
57648.0   0.0030085   
57680.0   0.0031287   
57712.0   0.0032078   
57745.0   0.0033273   
57777.0   0.0034595   
57809.0   0.0035763   
57841.0   0.0037028   
57873.0   0.0038916   
57906.0   0.0041214   
57938.0   0.0043557   
57970.0   0.0045956   
58003.0   0.0048042   
58035.0   0.004999   
58068.0   0.0052464   
58100.0   0.005557   
58133.0   0.0058798   
58166.0   0.0062121   
58198.0   0.00656   
58231.0   0.0068734   
58264.0   0.0071741   
58296.0   0.0075273   
58329.0   0.0079341   
58362.0   0.0084027   
58395.0   0.0089478   
58428.0   0.0095011   
58461.0   0.010006   
58494.0   0.010444   
58527.0   0.010851   
58560.0   0.011387   
58593.0   0.01205   
58626.0   0.012694   
58659.0   0.013376   
58692.0   0.014144   
58725.0   0.014851   
58759.0   0.015699   
58792.0   0.016825   
58825.0   0.017695   
58859.0   0.018417   
58892.0   0.019366   
58926.0   0.0204   
58959.0   0.021647   
58993.0   0.022815   
59026.0   0.023854   
59060.0   0.025208   
59094.0   0.026595   
59127.0   0.028079   
59161.0   0.029791   
59195.0   0.031455   
59229.0   0.033276   
59262.0   0.035081   
59296.0   0.03689   
59330.0   0.039213   
59364.0   0.041699   
59398.0   0.044071   
59432.0   0.046407   
59466.0   0.048962   
59500.0   0.052068   
59535.0   0.055033   
59569.0   0.057977   
59603.0   0.061312   
59637.0   0.064786   
59672.0   0.06911   
59706.0   0.073341   
59740.0   0.076702   
59775.0   0.081202   
59809.0   0.086446   
59844.0   0.090881   
59878.0   0.096031   
59913.0   0.10185   
59948.0   0.10674   
59982.0   0.11215   
60017.0   0.11864   
60052.0   0.12494   
60086.0   0.13174   
60121.0   0.13951   
60156.0   0.14654   
60191.0   0.15289   
60226.0   0.16028   
60261.0   0.16778   
60296.0   0.17532   
60331.0   0.18327   
60366.0   0.19082   
60401.0   0.19843   
60437.0   0.20619   
60472.0   0.21509   
60507.0   0.22299   
60542.0   0.22821   
60578.0   0.23435   
60613.0   0.24096   
60649.0   0.24758   
60684.0   0.25382   
60720.0   0.25892   
60755.0   0.26462   
60791.0   0.26862   
60827.0   0.27228   
60862.0   0.27706   
60898.0   0.27988   
60934.0   0.2829   
60970.0   0.28536   
61005.0   0.28709   
61041.0   0.2907   
61077.0   0.29171   
61113.0   0.29301   
61149.0   0.29629   
61185.0   0.29494   
61221.0   0.29373   
61258.0   0.29472   
61294.0   0.29528   
61330.0   0.29598   
61366.0   0.29561   
61403.0   0.29628   
61439.0   0.29672   
61476.0   0.29519   
61512.0   0.29392   
61548.0   0.2938   
61585.0   0.29469   
61622.0   0.29387   
61658.0   0.29229   
61695.0   0.29176   
61732.0   0.29158   
61768.0   0.29082   
61805.0   0.29045   
61842.0   0.29167   
61879.0   0.29029   
61916.0   0.28837   
61953.0   0.28879   
61990.0   0.28825   
62027.0   0.28781   
62064.0   0.28757   
62101.0   0.28722   
62139.0   0.2869   
62176.0   0.28582   
62213.0   0.2855   
62250.0   0.28533   
62288.0   0.28483   
62325.0   0.28475   
62363.0   0.28448   
62400.0   0.28434   
62438.0   0.28462   
62475.0   0.28433   
62513.0   0.28398   
62551.0   0.28405   
62589.0   0.28355   
62626.0   0.28288   
62664.0   0.28296   
62702.0   0.28327   
62740.0   0.28296   
62778.0   0.28301   
62816.0   0.28339   
62854.0   0.2835   
62892.0   0.28389   
62930.0   0.28397   
62969.0   0.28385   
63007.0   0.28382   
63045.0   0.2841   
63083.0   0.28418   
63122.0   0.2842   
63160.0   0.2849   
63199.0   0.28536   
63237.0   0.28581   
63276.0   0.28643   
63315.0   0.28712   
63353.0   0.28719   
63392.0   0.2878   
63431.0   0.29006   
63470.0   0.28989   
63508.0   0.28885   
63547.0   0.2905   
63586.0   0.29203   
63625.0   0.29189   
63664.0   0.29324   
63703.0   0.29565   
63743.0   0.29542   
63782.0   0.29518   
63821.0   0.29586   
63860.0   0.29699   
63900.0   0.29861   
63939.0   0.29885   
63979.0   0.29939   
64018.0   0.29938   
64058.0   0.30103   
64097.0   0.30404   
64137.0   0.30367   
64176.0   0.30586   
64216.0   0.30714   
64256.0   0.30423   
64296.0   0.30658   
64336.0   0.30956   
64376.0   0.30873   
64416.0   0.30918   
64456.0   0.3109   
64496.0   0.31298   
64536.0   0.31342   
64576.0   0.31347   
64616.0   0.31466   
64657.0   0.31524   
64697.0   0.31757   
64737.0   0.31816   
64778.0   0.31554   
64818.0   0.3157   
64859.0   0.31393   
64899.0   0.30906   
64940.0   0.3092   
64981.0   0.31207   
65021.0   0.31462   
65062.0   0.31973   
65103.0   0.32452   
65144.0   0.32789   
65185.0   0.33217   
65226.0   0.33389   
65267.0   0.33427   
65308.0   0.33649   
65349.0   0.33717   
65390.0   0.33876   
65432.0   0.34165   
65473.0   0.34178   
65514.0   0.34319   
65556.0   0.34554   
65597.0   0.34544   
65639.0   0.34643   
65680.0   0.34894   
65722.0   0.35134   
65764.0   0.35285   
65805.0   0.35087   
65847.0   0.35078   
65889.0   0.35535   
65931.0   0.35614   
65973.0   0.35579   
66015.0   0.35714   
66057.0   0.35646   
66099.0   0.35872   
66141.0   0.36031   
66183.0   0.35937   
66226.0   0.36191   
66268.0   0.36302   
66310.0   0.36279   
66353.0   0.36481   
66395.0   0.36541   
66438.0   0.36449   
66480.0   0.36428   
66523.0   0.36499   
66566.0   0.36684   
66608.0   0.36676   
66651.0   0.3659   
66694.0   0.36938   
66737.0   0.36996   
66780.0   0.36865   
66823.0   0.37219   
66866.0   0.37238   
66909.0   0.37112   
66952.0   0.37311   
66996.0   0.37337   
67039.0   0.37359   
67082.0   0.37633   
67126.0   0.37749   
67169.0   0.37663   
67213.0   0.37824   
67256.0   0.37942   
67300.0   0.37834   
67344.0   0.37926   
67387.0   0.38038   
67431.0   0.38045   
67475.0   0.38174   
67519.0   0.38248   
67563.0   0.38263   
67607.0   0.38334   
67651.0   0.38306   
67695.0   0.3849   
67740.0   0.3866   
67784.0   0.38428   
67828.0   0.3848   
67873.0   0.3869   
67917.0   0.38703   
67961.0   0.3875   
68006.0   0.38647   
68051.0   0.38561   
68095.0   0.3863   
68140.0   0.3863   
68185.0   0.38543   
68230.0   0.38672   
68275.0   0.38852   
68320.0   0.38642   
68365.0   0.3862   
68410.0   0.38741   
68455.0   0.38686   
68500.0   0.38846   
68545.0   0.38847   
68591.0   0.38885   
68636.0   0.39148   
68682.0   0.3895   
68727.0   0.38741   
68773.0   0.38767   
68818.0   0.38693   
68864.0   0.38719   
68910.0   0.38752   
68956.0   0.38651   
69001.0   0.3864   
69047.0   0.3868   
69093.0   0.3858   
69139.0   0.38465   
69186.0   0.38458   
69232.0   0.38399   
69278.0   0.38295   
69324.0   0.38263   
69371.0   0.38159   
69417.0   0.38085   
69464.0   0.38098   
69510.0   0.37929   
69557.0   0.3805   
69603.0   0.38329   
69650.0   0.37984   
69697.0   0.37763   
69744.0   0.37863   
69791.0   0.37797   
69838.0   0.37763   
69885.0   0.3777   
69932.0   0.37843   
69979.0   0.37779   
70026.0   0.37674   
70074.0   0.37776   
70121.0   0.37757   
70169.0   0.3786   
70216.0   0.37996   
70264.0   0.3794   
70311.0   0.3798   
70359.0   0.37894   
70407.0   0.38117   
70455.0   0.38516   
70503.0   0.38289   
70550.0   0.38261   
70598.0   0.38462   
70647.0   0.3845   
70695.0   0.3863   
70743.0   0.38821   
70791.0   0.38955   
70840.0   0.39094   
70888.0   0.39276   
70937.0   0.39516   
70985.0   0.39677   
71034.0   0.39887   
71082.0   0.40043   
71131.0   0.40241   
71180.0   0.40566   
71229.0   0.40715   
71278.0   0.40907   
71327.0   0.41169   
71376.0   0.4133   
71425.0   0.4169   
71474.0   0.42029   
71524.0   0.4211   
71573.0   0.42284   
71622.0   0.42524   
71672.0   0.4284   
71721.0   0.43178   
71771.0   0.43372   
71821.0   0.43704   
71871.0   0.44217   
71920.0   0.44625   
71970.0   0.44845   
72020.0   0.45329   
72070.0   0.45913   
72120.0   0.46002   
72171.0   0.46241   
72221.0   0.46734   
72271.0   0.47061   
72322.0   0.47403   
72372.0   0.47712   
72423.0   0.48038   
72473.0   0.48413   
72524.0   0.48777   
72575.0   0.49141   
72625.0   0.49471   
72676.0   0.49843   
72727.0   0.50232   
72778.0   0.50603   
72829.0   0.50935   
72881.0   0.51315   
72932.0   0.51723   
72983.0   0.51993   
73035.0   0.52413   
73086.0   0.52828   
73138.0   0.5304   
73189.0   0.5343   
73241.0   0.53698   
73293.0   0.53964   
73345.0   0.54459   
73396.0   0.54742   
73448.0   0.55089   
73500.0   0.55481   
73553.0   0.55741   
73605.0   0.56106   
73657.0   0.56376   
73709.0   0.56639   
73762.0   0.57036   
73814.0   0.57395   
73867.0   0.57699   
73920.0   0.58002   
73972.0   0.58282   
74025.0   0.58561   
74078.0   0.58914   
74131.0   0.5918   
74184.0   0.59378   
74237.0   0.59659   
74290.0   0.5998   
74344.0   0.6025   
74397.0   0.60424   
74450.0   0.60637   
74504.0   0.60898   
74557.0   0.61111   
74611.0   0.61364   
74665.0   0.61594   
74718.0   0.61751   
74772.0   0.61949   
74826.0   0.6212   
74880.0   0.62243   
74934.0   0.62377   
74989.0   0.62529   
75043.0   0.62736   
75097.0   0.62838   
75152.0   0.62931   
75206.0   0.63113   
75261.0   0.63194   
75315.0   0.63299   
75370.0   0.63397   
75425.0   0.63432   
75480.0   0.63496   
75535.0   0.63516   
75590.0   0.63559   
75645.0   0.63602   
75700.0   0.63692   
75755.0   0.63856   
75811.0   0.63834   
75866.0   0.63806   
75922.0   0.63887   
75977.0   0.63882   
76033.0   0.6393   
76089.0   0.64022   
76145.0   0.64084   
76201.0   0.64126   
76257.0   0.64132   
76313.0   0.64207   
76369.0   0.64288   
76425.0   0.64348   
76482.0   0.64397   
76538.0   0.64378   
76595.0   0.6439   
76651.0   0.64444   
76708.0   0.64509   
76765.0   0.64516   
76822.0   0.64534   
76879.0   0.64637   
76936.0   0.64654   
76993.0   0.64701   
77050.0   0.64747   
77107.0   0.64713   
77165.0   0.64774   
77222.0   0.64835   
77280.0   0.64859   
77337.0   0.6487   
77395.0   0.64905   
77453.0   0.65042   
77511.0   0.65086   
77569.0   0.65177   
77627.0   0.65379   
77685.0   0.6545   
77743.0   0.65551   
77801.0   0.65666   
77860.0   0.6573   
77918.0   0.65879   
77977.0   0.66097   
78035.0   0.66327   
78094.0   0.66451   
78153.0   0.66647   
78212.0   0.66915   
78271.0   0.66978   
78330.0   0.67155   
78389.0   0.67469   
78449.0   0.67687   
78508.0   0.67887   
78568.0   0.68127   
78627.0   0.68451   
78687.0   0.68687   
78747.0   0.68894   
78806.0   0.69255   
78866.0   0.69533   
78926.0   0.69774   
78986.0   0.70057   
79047.0   0.70264   
79107.0   0.70549   
79167.0   0.70921   
79228.0   0.71214   
79288.0   0.71465   
79349.0   0.71789   
79410.0   0.72099   
79471.0   0.72352   
79532.0   0.7268   
79593.0   0.7298   
79654.0   0.73296   
79715.0   0.73703   
79776.0   0.74013   
79838.0   0.74377   
79899.0   0.74794   
79961.0   0.75097   
80023.0   0.75455   
80084.0   0.75637   
80146.0   0.75684   
80208.0   0.75959   
80270.0   0.76196   
80332.0   0.76281   
80395.0   0.76436   
80457.0   0.76642   
80520.0   0.76822   
80582.0   0.76903   
80645.0   0.77045   
80708.0   0.77197   
80770.0   0.77257   
80833.0   0.77378   
80896.0   0.7748   
80960.0   0.7757   
81023.0   0.77714   
81086.0   0.77833   
81150.0   0.77877   
81213.0   0.77911   
81277.0   0.7804   
81341.0   0.78101   
81404.0   0.78165   
81468.0   0.78306   
81532.0   0.78341   
81597.0   0.78437   
81661.0   0.78643   
81725.0   0.78739   
81790.0   0.78811   
81854.0   0.78879   
81919.0   0.78927   
81984.0   0.79023   
82048.0   0.79062   
82113.0   0.79131   
82178.0   0.79275   
82244.0   0.79312   
82309.0   0.79317   
82374.0   0.79466   
82440.0   0.79686   
82505.0   0.79771   
82571.0   0.79813   
82637.0   0.7988   
82703.0   0.79948   
82769.0   0.80079   
82835.0   0.80148   
82901.0   0.8026   
82967.0   0.80473   
83034.0   0.80584   
83100.0   0.80698   
83167.0   0.80848   
83234.0   0.80989   
83301.0   0.81095   
83368.0   0.81135   
83435.0   0.81287   
83502.0   0.8141   
83569.0   0.81474   
83636.0   0.81648   
83704.0   0.81743   
83772.0   0.81784   
83839.0   0.81994   
83907.0   0.82208   
83975.0   0.82234   
84043.0   0.82308   
84111.0   0.82478   
84180.0   0.82508   
84248.0   0.8258   
84316.0   0.8277   
84385.0   0.82879   
84454.0   0.82971   
84523.0   0.83045   
84592.0   0.83087   
84661.0   0.83171   
84730.0   0.83238   
84799.0   0.83297   
84868.0   0.83368   
84938.0   0.83384   
85008.0   0.83445   
85077.0   0.83612   
85147.0   0.83689   
85217.0   0.83805   
85287.0   0.83907   
85357.0   0.83866   
85428.0   0.83951   
85498.0   0.84172   
85569.0   0.84215   
85639.0   0.84247   
85710.0   0.84422   
85781.0   0.84509   
85852.0   0.84513   
85923.0   0.84605   
85994.0   0.84698   
86066.0   0.84656   
86137.0   0.84722   
86209.0   0.84907   
86281.0   0.84867   
86352.0   0.84848   
86424.0   0.85068   
86496.0   0.85134   
86569.0   0.85106   
86641.0   0.85262   
86713.0   0.85366   
86786.0   0.85337   
86859.0   0.85437   
86931.0   0.85591   
87004.0   0.85642   
87077.0   0.85804   
87151.0   0.85995   
87224.0   0.86059   
87297.0   0.86246   
87371.0   0.86444   
87444.0   0.86566   
87518.0   0.86769   
87592.0   0.86914   
87666.0   0.87061   
87740.0   0.87321   
87815.0   0.87569   
87889.0   0.87836   
87964.0   0.88041   
88038.0   0.88202   
88113.0   0.88469   
88188.0   0.88702   
88263.0   0.88867   
88338.0   0.89087   
88414.0   0.89279   
88489.0   0.89454   
88565.0   0.89667   
88640.0   0.89905   
88716.0   0.90111   
88792.0   0.90314   
88868.0   0.90561   
88944.0   0.90735   
89021.0   0.90971   
89097.0   0.91379   
89174.0   0.91756   
89251.0   0.91976   
89327.0   0.9219   
89404.0   0.92463   
89482.0   0.92717   
89559.0   0.9306   
89636.0   0.93322   
89714.0   0.93516   
89791.0   0.93865   
89869.0   0.94153   
89947.0   0.94525   
90025.0   0.94944   
90104.0   0.95201   
90182.0   0.95504   
90260.0   0.95664   
90339.0   0.95844   
90418.0   0.96144   
90497.0   0.96247   
90576.0   0.96294   
90655.0   0.96449   
90734.0   0.96601   
90814.0   0.96613   
90893.0   0.96679   
90973.0   0.96773   
91053.0   0.96694   
91133.0   0.96708   
91213.0   0.96769   
91293.0   0.96676   
91374.0   0.966   
91454.0   0.96722   
91535.0   0.96851   
91616.0   0.96757   
91697.0   0.9674   
91778.0   0.9674   
91859.0   0.96589   
91941.0   0.96551   
92022.0   0.96521   
92104.0   0.96331   
92186.0   0.96125   
92268.0   0.96021   
92350.0   0.96006   
92432.0   0.95879   
92515.0   0.95684   
92597.0   0.95716   
92680.0   0.95692   
92763.0   0.95411   
92846.0   0.95348   
92929.0   0.95407   
93013.0   0.95183   
93096.0   0.94965   
93180.0   0.94893   
93264.0   0.94775   
93348.0   0.94745   
93432.0   0.94823   
93516.0   0.94743   
93600.0   0.94527   
93685.0   0.94489   
93770.0   0.9453   
93854.0   0.94438   
93939.0   0.94417   
94025.0   0.94382   
94110.0   0.94278   
94195.0   0.94359   
94281.0   0.94416   
94367.0   0.94372   
94453.0   0.94237   
94539.0   0.94192   
94625.0   0.9432   
94712.0   0.94246   
94798.0   0.94291   
94885.0   0.94453   
94972.0   0.94329   
95059.0   0.94338   
95146.0   0.94539   
95233.0   0.94695   
95321.0   0.9481   
95409.0   0.94958   
95496.0   0.95155   
95584.0   0.95354   
95673.0   0.9562   
95761.0   0.95847   
95850.0   0.96002   
95938.0   0.96267   
96027.0   0.9653   
96116.0   0.96654   
96205.0   0.96769   
96294.0   0.97004   
96384.0   0.97159   
96474.0   0.97184   
96563.0   0.97381   
96653.0   0.9766   
96744.0   0.9779   
96834.0   0.97884   
96924.0   0.9799   
97015.0   0.98073   
97106.0   0.98173   
97197.0   0.98296   
97288.0   0.98336   
97380.0   0.98341   
97471.0   0.98486   
97563.0   0.98548   
97655.0   0.98482   
97747.0   0.98614   
97839.0   0.98719   
97931.0   0.98678   
98024.0   0.98761   
98117.0   0.98835   
98209.0   0.98726   
98303.0   0.98582   
98396.0   0.98674   
98489.0   0.98881   
98583.0   0.9888   
98677.0   0.98961   
98771.0   0.99124   
98865.0   0.99108   
98959.0   0.99201   
99054.0   0.99382   
99148.0   0.99457   
99243.0   0.99531   
99338.0   0.99619   
99434.0   0.99592   
99529.0   0.99584   
99625.0   0.99793   
99720.0   0.99952   
99816.0   0.99971   
99913.0   1.0   
100009.0   0.99923   
100105.0   0.99619   
100202.0   0.99384   
100299.0   0.99146   
100396.0   0.98923   
100493.0   0.9859   
100591.0   0.98351   
100689.0   0.9822   
100786.0   0.9782   
100884.0   0.97466   
100983.0   0.97344   
101081.0   0.97146   
101180.0   0.96935   
101278.0   0.96754   
101377.0   0.96519   
101477.0   0.96273   
101576.0   0.96156   
101676.0   0.96078   
101775.0   0.95777   
101875.0   0.95489   
101976.0   0.95384   
102076.0   0.95156   
102177.0   0.94866   
102277.0   0.94793   
102378.0   0.94642   
102479.0   0.94329   
102581.0   0.94096   
102682.0   0.93778   
102784.0   0.93451   
102886.0   0.93234   
102988.0   0.92955   
103091.0   0.92677   
103193.0   0.92422   
103296.0   0.92169   
103399.0   0.91887   
103502.0   0.91496   
103606.0   0.9117   
103709.0   0.90949   
103813.0   0.90514   
103917.0   0.89988   
104021.0   0.89619   
104126.0   0.89191   
104230.0   0.8876   
104335.0   0.8845   
104440.0   0.88036   
104546.0   0.87521   
104651.0   0.87139   
104757.0   0.86754   
104863.0   0.86154   
104969.0   0.85654   
105075.0   0.85504   
105182.0   0.85252   
105289.0   0.85194   
105396.0   0.85296   
105503.0   0.852   
105610.0   0.85072   
105718.0   0.85031   
105826.0   0.85011   
105934.0   0.84923   
106042.0   0.8489   
106151.0   0.84931   
106259.0   0.84793   
106368.0   0.84693   
106478.0   0.84743   
106587.0   0.84715   
106697.0   0.84699   
106807.0   0.84687   
106917.0   0.84618   
107027.0   0.84712   
107138.0   0.84824   
107248.0   0.84786   
107359.0   0.84857   
107471.0   0.84999   
107582.0   0.85143   
107694.0   0.85334   
107806.0   0.85399   
107918.0   0.85469   
108030.0   0.85633   
108143.0   0.85643   
108256.0   0.85705   
108369.0   0.85929   
108482.0   0.85929   
108596.0   0.85882   
108710.0   0.86036   
108824.0   0.86121   
108938.0   0.86261   
109053.0   0.86444   
109168.0   0.86404   
109283.0   0.86363   
109398.0   0.8633   
109513.0   0.8627   
109629.0   0.86254   
109745.0   0.86299   
109861.0   0.8636   
109978.0   0.86179   
110095.0   0.85871   
110212.0   0.85748   
110329.0   0.8548   
110446.0   0.85162   
110564.0   0.84967   
110682.0   0.84728   
110800.0   0.8445   
110919.0   0.84138   
111038.0   0.83771   
111157.0   0.8359   
111276.0   0.8342   
111395.0   0.82999   
111515.0   0.82665   
111635.0   0.82378   
111756.0   0.81989   
111876.0   0.8176   
111997.0   0.81411   
112118.0   0.8086   
112239.0   0.80517   
112361.0   0.80086   
112483.0   0.7946   
112605.0   0.78947   
112727.0   0.78424   
112850.0   0.77751   
112973.0   0.77009   
113096.0   0.76286   
113220.0   0.7546   
113343.0   0.74468   
113467.0   0.73516   
113592.0   0.72474   
113716.0   0.71275   
113841.0   0.70073   
113966.0   0.68751   
114092.0   0.67233   
114217.0   0.65579   
114343.0   0.6381   
114469.0   0.61902   
114596.0   0.59962   
114723.0   0.57982   
114850.0   0.55955   
114977.0   0.5396   
115105.0   0.51859   
115232.0   0.4975   
115361.0   0.47667   
115489.0   0.45562   
115618.0   0.43441   
115747.0   0.41264   
115876.0   0.39073   
116006.0   0.36893   
116136.0   0.34785   
116266.0   0.32753   
116396.0   0.30714   
116527.0   0.28687   
116658.0   0.26718   
116790.0   0.24844   
116921.0   0.23039   
117053.0   0.21269   
117186.0   0.19597   
117318.0   0.18057   
117451.0   0.16604   
117584.0   0.15272   
117718.0   0.14049   
117851.0   0.12862   
117985.0   0.11764   
118120.0   0.10756   
118254.0   0.098194   
118389.0   0.089849   
118525.0   0.081989   
118660.0   0.074745   
118796.0   0.06835   
118933.0   0.062323   
119069.0   0.05696   
119206.0   0.052097   
119343.0   0.04725   
119481.0   0.042922   
119618.0   0.039342   
119757.0   0.036202   
119895.0   0.033261   
120034.0   0.030414   
120173.0   0.027821   
120312.0   0.025494   
120452.0   0.023206   
120592.0   0.021101   
120732.0   0.019577   
120873.0   0.018491   
121014.0   0.017245   
121156.0   0.015609   
121297.0   0.014081   
121439.0   0.01293   
121582.0   0.01185   
121724.0   0.010838   
121867.0   0.010059   
122011.0   0.0093961   
122155.0   0.0086539   
122299.0   0.0078096   
122443.0   0.0070576   
122588.0   0.0064837   
122733.0   0.0060255   
122878.0   0.0056665   
123024.0   0.0052398   
123170.0   0.0046884   
123317.0   0.0044067   
123463.0   0.0044298   
123610.0   0.0041112   
123758.0   0.0033056   
123906.0   0.002664   
124054.0   0.0025158   
124203.0   0.0025041   
124352.0   0.0024099   
124501.0   0.0023594   
124650.0   0.002393   
124800.0   0.0023252   
124951.0   0.0018846   
125102.0   0.0012533   
125253.0   0.0010302   
125404.0   0.0013007   
125556.0   0.0016035   
125708.0   0.0015757   
125861.0   0.0011707   
126014.0   0.0007422   
126167.0   0.00069602   
126321.0   0.00096412   
126475.0   0.0012294   
126629.0   0.0013354   
126784.0   0.0013594   
126939.0   0.001391   
127095.0   0.0012603   
127251.0   0.00083599   
127407.0   0.00046254   
127564.0   0.00038777   
127721.0   0.00030852   
127878.0   0.00022547   
128036.0   0.00049925   
128194.0   0.00085722   
128353.0   0.00086436   
128512.0   0.00071308   
128671.0   0.000591   
128831.0   0.00035658   
128992.0   0.0001014   
129152.0   7.2773e-05   
129313.0   0.00022794   
129475.0   0.00041864   
129636.0   0.00053008   
129799.0   0.00039927   
129961.0   0.00010347   
130124.0   0.0   
130288.0   5.8751e-05   
130452.0   0.00012776   
130616.0   0.0001449   
130781.0   0.00022569   
130946.0   0.00029404   
131111.0   0.00024679   
131277.0   0.00018688   
131444.0   0.00021755   
131611.0   0.00026512   
131778.0   0.00028542   
131946.0   0.00034041   
132114.0   0.00044349   
132282.0   0.00049561   
132451.0   0.00037584   
132620.0   0.00010557   
132790.0   0.0   
132960.0   0.0   
133131.0   0.00026427   
133302.0   0.0004748   
133474.0   0.00050744   
133646.0   0.00038227   
133818.0   0.0002239   
133991.0   0.00018006   
134165.0   0.00019407   
134338.0   0.00017387   
134513.0   0.00017758   
134687.0   0.00030619   
134862.0   0.00042669   
135038.0   0.00028232   
135214.0   1.9483e-05   
135391.0   0.0   
135568.0   0.0   
135745.0   0.00013327   
135923.0   0.00015016   
136101.0   4.5485e-07   
136280.0   0.0   
136459.0   5.0972e-05   
136639.0   0.00012298   
136819.0   0.00023498   
137000.0   0.00033764   
137181.0   0.00025916   
137363.0   6.3012e-05   
137545.0   0.0   
137728.0   1.2009e-05   
137911.0   8.2995e-05   
138095.0   0.00015262   
138279.0   0.00023492   
138464.0   0.00030175   
138649.0   0.00040274   
138834.0   0.00056732   
139020.0   0.00059058   
139207.0   0.00040482   
139394.0   0.0002481   
139582.0   0.0002137   
139770.0   8.9509e-05   
139958.0   0.0   
140148.0   0.0   
140337.0   0.0   
140527.0   0.0   
140718.0   0.0   
140909.0   0.0   
141101.0   0.0   
141293.0   5.9541e-05   
141486.0   0.00018794   
141679.0   0.00026933   
141873.0   0.00038268   
142067.0   0.00045176   
142262.0   0.00035795   
142458.0   0.00022331   
142654.0   0.00014319   
142850.0   9.4204e-05   
143047.0   0.00011413   
143245.0   0.00021098   
143443.0   0.00029291   
143642.0   0.00039364   
143841.0   0.0004957   
144041.0   0.00036532   
144241.0   0.00011107   
144442.0   9.3114e-05   
144643.0   0.00024699   
144845.0   0.00037092   
145048.0   0.00042046   
145251.0   0.00028737   
145455.0   5.8113e-05   
145659.0   0.0   
145864.0   0.0   
146069.0   0.0   
146275.0   0.0   
146482.0   0.0   
146689.0   0.0   
146897.0   0.0   
147105.0   0.00025196   
147314.0   0.00046931   
147524.0   0.0004373   
147734.0   0.00025403   
147945.0   0.00020134   
148156.0   0.00028118   
148368.0   0.00028616   
148580.0   0.00018148   
148794.0   0.00010214   
149007.0   0.00014599   
149222.0   0.00017171   
149437.0   2.3949e-05   
149653.0   0.0   
149869.0   0.0   
150086.0   0.0001202   
150303.0   0.0001762   
150521.0   0.00020482   
150740.0   0.0001861   
150960.0   0.00011263   
151180.0   0.00013205   
151400.0   0.00019276   
151622.0   0.00011665   
151844.0   0.0   
152066.0   0.0   
152290.0   0.0   
152514.0   0.0   
152738.0   2.4104e-05   
152963.0   0.00017116   
153189.0   0.00032411   
153416.0   0.0004224   
153643.0   0.00023092   
153871.0   0.0   
154100.0   0.0   
154329.0   0.0   
154559.0   0.00022375   
154790.0   0.00045381   
155021.0   0.00035588   
155253.0   0.00020563   
155486.0   0.00017101   
155719.0   0.00013541   
155954.0   5.7894e-05   
156189.0   6.0519e-05   
156424.0   0.00013711   
156660.0   7.8145e-05   
156897.0   0.0   
157135.0   0.0   
157374.0   0.00017402   
157613.0   0.0002608   
157853.0   0.00024915   
158093.0   0.00025177   
158335.0   0.0002854   
158577.0   0.00031663   
158820.0   0.0002904   
159063.0   0.00015609   
159307.0   0.00010904   
159553.0   0.00026652   
159798.0   0.00027866   
160045.0   0.0   
160292.0   0.0   
160541.0   0.0   
160789.0   0.00012956   
161039.0   0.00035269   
161290.0   0.00048122   
161541.0   0.00052922   
161793.0   0.00056045   
162046.0   0.00059596   
162299.0   0.00045778   
162554.0   0.00016925   
162809.0   0.00014414   
163065.0   0.00020073   
163322.0   0.0   
163579.0   0.0   
163838.0   0.0001023   
164097.0   0.00016147   
164357.0   2.207e-05   
164618.0   0.0   
164879.0   0.0   
165142.0   7.6123e-05   
165405.0   0.00010275   
165670.0   0.00013189   
165935.0   0.00024866   
166201.0   0.00039592   
166467.0   0.0005348   
166735.0   0.00060166   
167004.0   0.0004289   
167273.0   5.8632e-05   
167543.0   0.0   
167814.0   0.0   
168086.0   0.0   
168359.0   0.0   
168633.0   0.00016215   
168907.0   0.00044769   
169183.0   0.00053668   
169459.0   0.0002925   
169737.0   0.00015092   
170015.0   0.00043871   
170294.0   0.00068559   
170574.0   0.00060871   
170855.0   0.00039876   
171137.0   0.00017528   
171420.0   5.3675e-05   
171704.0   0.0001775   
171989.0   0.00035351   
172274.0   0.00018427   
172561.0   0.0   
172849.0   0.0   
173137.0   4.8065e-06   
173427.0   0.00053321   
173717.0   0.0007534   
174009.0   0.00062265   
174301.0   0.00037927   
174595.0   0.00019076   
174889.0   0.00010099   
175184.0   0.00013588   
175481.0   0.00023408   
175778.0   0.00026504   
176077.0   0.00018632   
176376.0   3.2839e-05   
176677.0   0.0   
176978.0   0.0   
177281.0   0.0   
177584.0   0.0   
177889.0   0.0   
178194.0   7.5665e-05   
178501.0   7.2121e-05   
178809.0   7.5667e-05   
179118.0   0.00012657   
179428.0   0.00022833   
179739.0   0.00034282   
180051.0   0.00034043   
180364.0   0.00018767   
180678.0   4.89e-05   
180993.0   3.4983e-06   
181310.0   0.0   
181627.0   0.0   
181946.0   9.5133e-05   
182266.0   0.00019965   
182587.0   0.00018675   
182909.0   0.00024058   
183232.0   0.00042926   
183556.0   0.00056512   
183882.0   0.00053661   
184208.0   0.00038221   
184536.0   0.0002227   
184865.0   0.0001103   
185195.0   2.646e-05   
185526.0   6.9147e-05   
185859.0   0.00017596   
186192.0   0.00017419   
186527.0   0.00011794   
186863.0   9.9376e-05   
187201.0   0.0001382   
187539.0   0.00024682   
187879.0   0.00036125   
188220.0   0.00037632   
188562.0   0.00030434   
188906.0   0.0001893   
189250.0   7.8764e-05   
189596.0   6.8319e-05   
189944.0   0.000125   
190292.0   0.00017658   
190642.0   0.00029865   
190993.0   0.00049955   
191345.0   0.00064924   
191699.0   0.0007411   
192054.0   0.00089139   
192410.0   0.0010008   
192768.0   0.00095152   
193127.0   0.00087142   
193487.0   0.00083608   
193849.0   0.00078597   
194212.0   0.00062971   
194576.0   0.00041974   
194942.0   0.0003223   
195309.0   0.00027865   
195678.0   0.00017352   
196048.0   0.00013873   
196419.0   0.00025989   
196792.0   0.00030264   
197166.0   0.00016031   
197541.0   6.0657e-05   
197918.0   7.7895e-05   
198297.0   7.8077e-05   
198677.0   4.8704e-05   
199058.0   6.4848e-05   
199441.0   0.00013097   
199825.0   0.00015932   
200000.0   0.0   
