##################################################################
# Soectral response of DORBE filters
# From http://lambda.gsfc.nasa.gov/product/cobe/dirbe_exsup.cfm
##################################################################
#Appendix A DIRBE System Spectral Response Table A.0-1 gives the normalized
#System Spectral Responses for the 10 DIRBE photometric bands. The uncertainties
#per measurement are estimated to be 1% or less.
##################################################################
# Table A.0-1: Normalized system responses for the 10 DIRBE bands
#wavelength   response   
9970.0   0.0   
10050.0   0.0   
10130.0   0.0   
10200.0   0.0   
10280.0   0.0   
10360.0   0.0   
10450.0   0.0   
10530.0   0.0   
10610.0   0.0   
10690.0   0.0   
10780.0   0.0   
10860.0   0.0   
10950.0   0.0   
11030.0   0.0   
11120.0   0.0   
11200.0   0.0   
11290.0   0.0   
11380.0   0.0   
11470.0   0.0   
11560.0   0.0   
11650.0   0.0   
11740.0   0.0   
11830.0   0.0   
11920.0   0.0   
12020.0   0.0   
12110.0   0.0   
12200.0   0.0   
12300.0   0.0   
12400.0   0.0   
12490.0   0.0   
12590.0   0.0   
12690.0   0.0   
12790.0   0.0   
12890.0   0.0   
12990.0   0.0   
13090.0   0.0   
13190.0   0.0   
13300.0   0.0   
13400.0   0.0   
13500.0   0.0   
13610.0   0.0   
13720.0   0.0   
13820.0   0.0   
13930.0   0.0   
14040.0   0.0   
14150.0   0.0   
14260.0   0.0   
14370.0   0.0   
14480.0   0.0   
14600.0   0.0   
14710.0   0.0   
14830.0   0.0   
14940.0   0.0   
15060.0   0.0   
15180.0   0.0   
15290.0   0.0   
15410.0   0.0   
15530.0   0.0   
15660.0   0.0   
15780.0   0.0   
15900.0   0.0   
16030.0   0.0   
16150.0   0.0   
16280.0   0.0   
16400.0   0.0   
16530.0   0.0   
16660.0   0.0   
16790.0   0.0   
16920.0   0.0   
17050.0   0.0   
17190.0   0.0   
17320.0   0.0   
17460.0   0.0   
17590.0   0.0   
17730.0   0.0   
17870.0   0.0   
18010.0   0.0   
18150.0   0.0   
18290.0   0.0   
18430.0   0.0   
18580.0   0.0   
18720.0   0.0   
18870.0   0.0   
19020.0   0.0   
19170.0   0.0   
19320.0   0.0   
19470.0   0.0   
19620.0   0.0   
19770.0   0.0   
19930.0   0.0   
20080.0   0.0   
20240.0   0.0   
20400.0   0.0   
20560.0   0.0   
20720.0   0.0   
20880.0   0.0   
21040.0   0.0   
21210.0   0.0   
21370.0   0.0   
21540.0   0.0   
21710.0   0.0   
21880.0   0.0   
22050.0   0.0   
22220.0   0.0   
22390.0   0.0   
22570.0   0.0   
22740.0   0.0   
22920.0   0.0   
23100.0   0.0   
23280.0   0.0   
23460.0   0.0   
23650.0   0.0   
23830.0   0.0   
24020.0   0.0   
24200.0   0.0   
24390.0   0.0   
24580.0   0.0   
24780.0   0.0   
24970.0   0.0   
25170.0   0.0   
25360.0   0.0   
25560.0   0.0   
25760.0   0.0   
25960.0   0.0   
26160.0   0.0   
26370.0   0.0   
26570.0   0.0   
26780.0   0.0   
26990.0   0.0   
27200.0   0.0   
27410.0   0.0   
27630.0   0.0   
27840.0   0.0   
28060.0   0.0   
28280.0   0.0   
28500.0   0.0   
28720.0   0.0   
28950.0   0.0   
29170.0   0.0   
29400.0   0.0   
29630.0   0.0   
29860.0   0.0   
30100.0   0.0   
30330.0   0.0   
30570.0   0.0   
30810.0   0.0   
31050.0   0.0   
31290.0   0.0   
31540.0   0.0   
31780.0   0.0   
32030.0   0.0   
32280.0   0.0   
32530.0   0.0   
32790.0   0.0   
33040.0   0.0   
33300.0   0.0   
33560.0   0.0   
33820.0   0.0   
34090.0   0.0   
34350.0   0.0   
34620.0   0.0   
34890.0   0.0   
35160.0   0.0   
35440.0   0.0   
35720.0   0.0   
35990.0   0.0   
36280.0   0.0   
36560.0   0.0   
36850.0   0.0   
37130.0   0.0   
37420.0   0.0   
37720.0   0.0   
38010.0   0.0   
38310.0   0.0   
38610.0   0.0   
38910.0   0.0   
39210.0   0.0   
39520.0   0.0   
39830.0   0.0   
40140.0   0.0   
40450.0   0.0   
40770.0   0.0   
41090.0   0.0   
41410.0   0.0   
41730.0   0.0   
42060.0   0.0   
42380.0   0.0   
42720.0   0.0   
43050.0   0.0   
43390.0   0.0   
43720.0   0.0   
44070.0   0.0   
44410.0   0.0   
44760.0   0.0   
45110.0   0.0   
45460.0   0.0   
45810.0   0.0   
46170.0   0.0   
46530.0   0.0   
46900.0   0.0   
47260.0   0.0   
47630.0   0.0   
48000.0   0.0   
48380.0   0.0   
48760.0   0.0   
49140.0   0.0   
49520.0   0.0   
49910.0   0.0   
50300.0   0.0   
50690.0   0.0   
51090.0   0.0   
51490.0   0.0   
51890.0   0.0   
52290.0   0.0   
52700.0   0.0   
53110.0   0.0   
53530.0   0.0   
53950.0   0.0   
54370.0   0.0   
54790.0   0.0   
55220.0   0.0   
55650.0   0.0   
56090.0   0.0   
56520.0   0.0   
56970.0   0.0   
57410.0   0.0   
57860.0   0.0   
58310.0   0.0   
58770.0   0.0   
59230.0   0.0   
59690.0   0.0   
60150.0   0.0   
60620.0   0.0   
61100.0   0.0   
61580.0   0.0   
62060.0   0.0   
62540.0   0.0   
63030.0   0.0   
63520.0   0.0   
64020.0   0.0   
64520.0   0.0   
65020.0   0.0   
65530.0   0.0   
66040.0   0.0   
66560.0   0.0   
67080.0   0.0   
67600.0   0.0   
68130.0   0.0   
68660.0   0.0   
69200.0   0.0   
69740.0   0.0   
70280.0   0.0   
70830.0   0.0   
71390.0   0.0   
71940.0   0.0   
72510.0   0.0   
73070.0   0.0   
73640.0   0.0   
74220.0   0.0   
74800.0   0.0   
75380.0   0.0   
75970.0   0.0   
76560.0   0.0   
77160.0   0.0   
77770.0   0.0   
78370.0   0.0   
78980.0   0.0   
79600.0   0.0   
80220.0   0.0   
80850.0   0.0   
81480.0   0.0   
82120.0   0.0   
82760.0   0.0   
83410.0   0.0   
84060.0   0.0   
84710.0   0.0   
85380.0   0.0   
86040.0   0.0   
86710.0   0.0   
87390.0   0.0   
88070.0   0.0   
88760.0   0.0   
89460.0   0.0   
90160.0   0.0   
90860.0   0.0   
91570.0   0.0   
92280.0   0.0   
93010.0   0.0   
93730.0   0.0   
94460.0   0.0   
95200.0   0.0   
95950.0   0.0   
96690.0   0.0   
97450.0   0.0   
98210.0   0.0   
98980.0   0.0   
99750.0   0.0   
100500.0   0.0   
101300.0   0.0   
102100.0   0.0   
102900.0   0.0   
103700.0   0.0   
104500.0   0.0   
105300.0   0.0   
106200.0   0.0   
107000.0   0.0   
107800.0   0.0   
108700.0   0.0   
109500.0   0.0   
110400.0   0.0   
111200.0   0.0   
112100.0   0.0   
113000.0   0.0   
113900.0   0.0   
114700.0   0.0   
115600.0   0.0   
116500.0   0.0   
117500.0   0.0   
118400.0   0.0   
119300.0   0.0   
120200.0   0.0   
121200.0   0.0   
122100.0   0.0   
123100.0   0.0   
124000.0   0.0   
125000.0   0.0   
126000.0   0.0   
127000.0   0.0   
128000.0   0.0   
129000.0   0.0   
130000.0   0.0   
131000.0   0.0   
132000.0   0.0   
133000.0   0.0   
134100.0   0.0   
135100.0   0.0   
136200.0   0.0   
137200.0   0.0   
138300.0   0.0   
139400.0   0.0   
140500.0   0.0   
141600.0   0.0   
142700.0   0.0   
143800.0   0.0   
144900.0   0.0   
146100.0   0.0   
147200.0   0.0   
148300.0   0.0   
149500.0   0.0   
150700.0   0.0   
151800.0   0.0   
153000.0   0.0   
154200.0   0.0   
155400.0   0.0   
156600.0   0.0   
157900.0   0.0   
159100.0   0.0   
160300.0   0.0   
161600.0   0.0   
162900.0   0.0   
164100.0   0.0   
165400.0   0.0   
166700.0   0.0   
168000.0   0.0   
169300.0   0.0   
170600.0   0.0   
172000.0   0.0   
173300.0   0.0   
174700.0   0.0   
176000.0   0.0   
177400.0   0.0   
178800.0   0.0   
180200.0   0.0   
181600.0   0.0   
183000.0   0.0   
184400.0   0.0   
185900.0   0.0   
187300.0   0.0   
188800.0   0.0   
190300.0   0.0   
191800.0   0.0   
193300.0   0.0   
194800.0   0.0   
196300.0   0.0   
197800.0   0.0   
199400.0   0.0   
200900.0   0.0   
202500.0   0.0   
204100.0   0.0   
205700.0   0.0   
207300.0   0.0   
208900.0   0.0   
210500.0   0.0   
212200.0   0.0   
213800.0   0.0   
215500.0   0.0   
217200.0   0.0   
218900.0   0.0   
220600.0   0.0   
222300.0   0.0   
224100.0   0.0   
225800.0   0.0   
227600.0   0.0   
229300.0   0.0   
231100.0   0.0   
232900.0   0.0   
234800.0   0.0   
236600.0   0.0   
238400.0   0.0   
240300.0   0.0   
242200.0   0.0   
244100.0   0.0   
246000.0   0.0   
247900.0   0.0   
249800.0   0.0   
251800.0   0.0   
253800.0   0.0   
255700.0   0.0   
257700.0   0.0   
259800.0   0.0   
261800.0   0.0   
263800.0   0.0   
265900.0   0.0   
268000.0   0.0   
270100.0   0.0   
272200.0   0.0   
274300.0   0.0   
276400.0   0.0   
278600.0   0.0   
280800.0   0.0   
283000.0   0.0   
285200.0   0.0   
287400.0   0.0   
289700.0   0.0   
291900.0   0.0   
294200.0   0.0   
296500.0   0.0   
298800.0   0.0   
301100.0   0.0   
303500.0   0.01   
305900.0   0.01   
308300.0   0.01   
310700.0   0.01   
313100.0   0.01   
315500.0   0.01   
318000.0   0.01   
320500.0   0.02   
323000.0   0.02   
325500.0   0.02   
328100.0   0.02   
330600.0   0.02   
333200.0   0.02   
335800.0   0.02   
338400.0   0.02   
341100.0   0.02   
343700.0   0.02   
346400.0   0.01   
349100.0   0.01   
351800.0   0.01   
354600.0   0.01   
357400.0   0.01   
360200.0   0.0   
363000.0   0.0   
365800.0   0.0   
368700.0   0.0   
371500.0   0.0   
374400.0   0.0   
377400.0   0.0   
380300.0   0.03   
383300.0   0.06   
386300.0   0.09   
389300.0   0.11   
392300.0   0.13   
395400.0   0.16   
398500.0   0.19   
401600.0   0.22   
404700.0   0.24   
407900.0   0.27   
411100.0   0.3   
414300.0   0.34   
417500.0   0.37   
420800.0   0.39   
424100.0   0.42   
427400.0   0.45   
430700.0   0.48   
434100.0   0.5   
437500.0   0.53   
440900.0   0.56   
444400.0   0.59   
447800.0   0.62   
451300.0   0.6   
454900.0   0.6   
458400.0   0.6   
462000.0   0.7   
465600.0   0.7   
469200.0   0.7   
472900.0   0.7   
476600.0   0.7   
480300.0   0.7   
484100.0   0.7   
487800.0   0.7   
491700.0   0.7   
495500.0   0.8   
499400.0   0.8   
503300.0   0.8   
507200.0   0.8   
511200.0   0.8   
515200.0   0.8   
519200.0   0.8   
523200.0   0.8   
527300.0   0.8   
531400.0   0.8   
535600.0   0.8   
539800.0   0.8   
544000.0   0.9   
548200.0   0.9   
552500.0   0.9   
556800.0   0.9   
561200.0   0.9   
565600.0   0.9   
570000.0   0.9   
574400.0   0.9   
578900.0   0.9   
583500.0   0.9   
588000.0   0.9   
592600.0   0.9   
597200.0   0.9   
601900.0   1.0   
606600.0   1.0   
611300.0   1.0   
616100.0   1.0   
620900.0   1.0   
625800.0   1.0   
630700.0   0.9   
635600.0   0.9   
640600.0   0.93   
645600.0   0.9   
650600.0   0.88   
655700.0   0.84   
660800.0   0.8   
666000.0   0.77   
671200.0   0.73   
676400.0   0.69   
681700.0   0.66   
687000.0   0.62   
692400.0   0.58   
697800.0   0.55   
703200.0   0.52   
708700.0   0.49   
714300.0   0.46   
719900.0   0.42   
725500.0   0.37   
731100.0   0.32   
736900.0   0.27   
742600.0   0.23   
748400.0   0.2   
754300.0   0.17   
760100.0   0.14   
766100.0   0.1   
772100.0   0.08   
778100.0   0.07   
784200.0   0.06   
790300.0   0.04   
796500.0   0.03   
802700.0   0.02   
809000.0   0.01   
815300.0   0.01   
821700.0   0.0   
828100.0   0.0   
834500.0   0.0   
841100.0   0.0   
847600.0   0.0   
854300.0   0.0   
860900.0   0.0   
867600.0   0.0   
874400.0   0.0   
881300.0   0.0   
888100.0   0.0   
895100.0   0.0   
902100.0   0.0   
909100.0   0.0   
916200.0   0.0   
923400.0   0.0   
930600.0   0.0   
937900.0   0.0   
945200.0   0.0   
952600.0   0.0   
960000.0   0.0   
967500.0   0.0   
975100.0   0.0   
982700.0   0.0   
990400.0   0.0   
998100.0   0.0   
1005900.0   0.0   
1013700.0   0.0   
1021700.0   0.0   
1029600.0   0.0   
1037700.0   0.0   
1045800.0   0.0   
1054000.0   0.0   
1062200.0   0.0   
1070500.0   0.0   
1078900.0   0.0   
1087300.0   0.0   
1095800.0   0.0   
1104300.0   0.0   
1113000.0   0.0   
1121700.0   0.0   
1130400.0   0.0   
1139200.0   0.0   
1148100.0   0.0   
1157100.0   0.0   
1166200.0   0.0   
1175300.0   0.0   
1184400.0   0.0   
1193700.0   0.0   
1203000.0   0.0   
1212400.0   0.0   
1221900.0   0.0   
1231400.0   0.0   
1241000.0   0.0   
1250700.0   0.0   
1260500.0   0.0   
1270400.0   0.0   
1280300.0   0.0   
1290300.0   0.0   
1300400.0   0.0   
1310500.0   0.0   
1320800.0   0.0   
1331100.0   0.0   
1341500.0   0.0   
1351900.0   0.0   
1362500.0   0.0   
1373200.0   0.0   
1383900.0   0.0   
1394700.0   0.0   
1405600.0   0.0   
1416600.0   0.0   
1427600.0   0.0   
1438800.0   0.0   
1450000.0   0.0   
1461300.0   0.0   
1472800.0   0.0   
1484300.0   0.0   
1495900.0   0.0   
1507500.0   0.0   
1519300.0   0.0   
1531200.0   0.0   
1543100.0   0.0   
1555200.0   0.0   
1567300.0   0.0   
1579600.0   0.0   
1591900.0   0.0   
1604400.0   0.0   
1616900.0   0.0   
1629500.0   0.0   
1642300.0   0.0   
1655100.0   0.0   
1668000.0   0.0   
1681000.0   0.0   
1694200.0   0.0   
1707400.0   0.0   
1720700.0   0.0   
1734200.0   0.0   
1747700.0   0.0   
1761400.0   0.0   
1775100.0   0.0   
1789000.0   0.0   
1803000.0   0.0   
1817100.0   0.0   
1831300.0   0.0   
1845600.0   0.0   
1860000.0   0.0   
1874500.0   0.0   
1889200.0   0.0   
1903900.0   0.0   
1918800.0   0.0   
1933800.0   0.0   
1948900.0   0.0   
1964100.0   0.0   
1979400.0   0.0   
1994900.0   0.0   
2010500.0   0.0   
2026200.0   0.0   
2042000.0   0.0   
2058000.0   0.0   
2074000.0   0.0   
2090200.0   0.0   
2106600.0   0.0   
2123000.0   0.0   
2139600.0   0.0   
2156300.0   0.0   
2173200.0   0.0   
2190100.0   0.0   
2207200.0   0.0   
2224500.0   0.0   
2241900.0   0.0   
2259400.0   0.0   
2277000.0   0.0   
2294800.0   0.0   
2312700.0   0.0   
2330800.0   0.0   
2349000.0   0.0   
2367400.0   0.0   
2385900.0   0.0   
2404500.0   0.0   
2423300.0   0.0   
2442200.0   0.0   
2461300.0   0.0   
2480500.0   0.0   
2499900.0   0.0   
2519400.0   0.0   
2539100.0   0.0   
2558900.0   0.0   
2578900.0   0.0   
2599100.0   0.0   
2619400.0   0.0   
2639800.0   0.0   
2660400.0   0.0   
2681200.0   0.0   
2702200.0   0.0   
2723300.0   0.0   
2744500.0   0.0   
2766000.0   0.0   
2787600.0   0.0   
2809400.0   0.0   
2831300.0   0.0   
2853400.0   0.0   
2875700.0   0.0   
2898200.0   0.0   
2920800.0   0.0   
2943600.0   0.0   
2966600.0   0.0   
2989800.0   0.0   
3013100.0   0.0   
3036700.0   0.0   
3060400.0   0.0   
3084300.0   0.0   
3108400.0   0.0   
3132700.0   0.0   
3157200.0   0.0   
3181800.0   0.0   
3206700.0   0.0   
3231700.0   0.0   
3257000.0   0.0   
3282400.0   0.0   
3308000.0   0.0   
3333900.0   0.0   
3359900.0   0.0   
3386200.0   0.0   
3412600.0   0.0   
3439300.0   0.0   
3466100.0   0.0   
3493200.0   0.0   
3520500.0   0.0   
3548000.0   0.0   
3575700.0   0.0   
3603600.0   0.0   
3631800.0   0.0   
3660200.0   0.0   
3688800.0   0.0   
3717600.0   0.0   
3746600.0   0.0   
3775900.0   0.0   
3805400.0   0.0   
3835100.0   0.0   
3865100.0   0.0   
3895200.0   0.0   
3925700.0   0.0   
3956300.0   0.0   
3987200.0   0.0   
4018400.0   0.0   
4049800.0   0.0   
4081400.0   0.0   
4113300.0   0.0   
4145400.0   0.0   
4177800.0   0.0   
4210400.0   0.0   
4243300.0   0.0   
4276500.0   0.0   
4309900.0   0.0   
4343500.0   0.0   
4377500.0   0.0   
4411700.0   0.0   
4446100.0   0.0   
4480800.0   0.0   
4515900.0   0.0   
4551100.0   0.0   
4586700.0   0.0   
4622500.0   0.0   
4658600.0   0.0   
4695000.0   0.0   
4731700.0   0.0   
4768600.0   0.0   
4805900.0   0.0   
4843400.0   0.0   
4881300.0   0.0   
4919400.0   0.0   
4957800.0   0.0   
4996500.0   0.0   
