# http://www.astro.ucla.edu/~wright/WISE/passbands.html
# wavelength in micron
#wave   response   
25300.0   6.92e-06   
25400.0   4.564e-07   
25500.0   2.495e-07   
25600.0   2.72e-07   
25700.0   9.04e-06   
25800.0   6.348e-06   
25900.0   4.136e-06   
26000.0   2.793e-06   
26100.0   0.0004198   
26200.0   0.001379   
26300.0   0.001082   
26400.0   0.0008709   
26500.0   0.0009467   
26600.0   0.001015   
26700.0   0.001206   
26800.0   0.0003869   
26900.0   0.0005885   
27000.0   0.0009281   
27100.0   0.009862   
27200.0   0.008701   
27300.0   0.005164   
27400.0   0.003839   
27500.0   0.008238   
27600.0   0.01525   
27700.0   0.02603   
27800.0   0.04979   
27900.0   0.09753   
28000.0   0.1701   
28100.0   0.2507   
28200.0   0.308   
28300.0   0.332   
28400.0   0.328   
28500.0   0.316   
28600.0   0.302   
28700.0   0.286   
28800.0   0.2711   
28900.0   0.2691   
29000.0   0.2811   
29100.0   0.3041   
29200.0   0.3303   
29300.0   0.353   
29400.0   0.3718   
29500.0   0.3877   
29600.0   0.402   
29700.0   0.418   
29800.0   0.433   
29900.0   0.443   
30000.0   0.446   
30100.0   0.449   
30200.0   0.452   
30300.0   0.45   
30400.0   0.441   
30500.0   0.43   
30600.0   0.415   
30700.0   0.399   
30800.0   0.38   
30900.0   0.364   
31000.0   0.355   
31100.0   0.362   
31200.0   0.388   
31300.0   0.428   
31400.0   0.465   
31500.0   0.493   
31600.0   0.512   
31700.0   0.526   
31800.0   0.538   
31900.0   0.549   
32000.0   0.558   
32100.0   0.563   
32200.0   0.568   
32300.0   0.571   
32400.0   0.573   
32500.0   0.568   
32600.0   0.562   
32700.0   0.558   
32800.0   0.56   
32900.0   0.575   
33000.0   0.606   
33100.0   0.647   
33200.0   0.69   
33300.0   0.728   
33400.0   0.754   
33500.0   0.7679   
33600.0   0.7659   
33700.0   0.7509   
33800.0   0.7339   
33900.0   0.714   
34000.0   0.693   
34100.0   0.681   
34200.0   0.694   
34300.0   0.733   
34400.0   0.7859   
34500.0   0.8339   
34600.0   0.8639   
34700.0   0.8779   
34800.0   0.8798   
34900.0   0.8758   
35000.0   0.8728   
35100.0   0.8699   
35200.0   0.8669   
35300.0   0.864   
35400.0   0.855   
35500.0   0.841   
35600.0   0.823   
35700.0   0.803   
35800.0   0.783   
35900.0   0.77   
36000.0   0.766   
36100.0   0.775   
36200.0   0.792   
36300.0   0.808   
36400.0   0.816   
36500.0   0.818   
36600.0   0.816   
36700.0   0.814   
36800.0   0.811   
36900.0   0.808   
37000.0   0.8051   
37100.0   0.8041   
37200.0   0.8021   
37300.0   0.7941   
37400.0   0.7691   
37500.0   0.7222   
37600.0   0.6503   
37700.0   0.5546   
37800.0   0.4439   
37900.0   0.329   
38000.0   0.2271   
38100.0   0.1489   
38200.0   0.09272   
38300.0   0.0566   
38400.0   0.0348   
38500.0   0.02195   
38600.0   0.01396   
38700.0   0.008715   
38800.0   0.005335   
38900.0   0.003771   
39000.0   0.003128   
39100.0   0.002458   
39200.0   0.00186   
39300.0   0.001757   
39400.0   0.001408   
39500.0   0.001172   
39600.0   0.0008769   
39700.0   0.0005055   
39800.0   0.0002727   
39900.0   3.285e-05   
40000.0   7.679e-05   
40100.0   3.357e-05   
40200.0   2.224e-05   
40300.0   1.027e-05   
40400.0   5.686e-06   
40500.0   3.845e-06   
40600.0   9.412e-06   
40700.0   8.818e-07   
40800.0   6.263e-06   
40900.0   5.745e-06   
41000.0   1.101e-06   
41100.0   2.516e-06   
41200.0   6.364e-07   
41300.0   5.059e-07   
41400.0   2.689e-06   
41500.0   2.208e-05   
41600.0   3.894e-05   
41700.0   4.666e-05   
41800.0   3.668e-05   
41900.0   2.686e-05   
42000.0   2.57e-07   
42100.0   2.347e-07   
42200.0   2.089e-07   
42300.0   1.796e-07   
42400.0   1.491e-07   
42500.0   1.106e-06   
42600.0   9.136e-08   
42700.0   7.271e-07   
42800.0   4.862e-07   
42900.0   3.782e-07   
43000.0   2.335e-08   
43100.0   1.58e-08   
43200.0   1.054e-08   
43300.0   1.532e-07   
43400.0   4.493e-09   
43500.0   2.845e-09   
43600.0   1.827e-09   
43700.0   2.841e-08   
43800.0   8.003e-10   
43900.0   5.905e-10   
44000.0   4.375e-10   
44100.0   9.246e-09   
44200.0   2.497e-10   
44300.0   1.826e-10   
44400.0   1.345e-10   
44500.0   1.408e-09   
44600.0   1.343e-09   
44700.0   5.071e-11   
44800.0   3.382e-11   
44900.0   2.661e-11   
45000.0   1.767e-11   
45100.0   1.008e-11   
45200.0   3.007e-10   
45300.0   5.644e-12   
45400.0   4.777e-12   
45500.0   3.013e-12   
45600.0   1.279e-07   
45700.0   9.889e-08   
45800.0   2.856e-07   
45900.0   1.377e-07   
46000.0   1.115e-07   
46100.0   9.872e-08   
46200.0   3.303e-07   
46300.0   1.088e-07   
46400.0   3.423e-07   
46500.0   1.574e-07   
46600.0   1.95e-07   
46700.0   3.844e-07   
46800.0   1.013e-07   
46900.0   1.75e-07   
47000.0   4.023e-07   
47100.0   1.126e-09   
47200.0   1.578e-09   
47300.0   1.097e-09   
47400.0   3.736e-10   
47500.0   4.384e-09   
47600.0   2.511e-09   
47700.0   7.463e-10   
47800.0   1.364e-10   
47900.0   3.789e-10   
48000.0   4.876e-09   
48100.0   1.203e-10   
48200.0   1.43e-10   
48300.0   9.217e-13   
48400.0   4.525e-11   
48500.0   1.102e-09   
48600.0   3.404e-09   
48700.0   8.822e-10   
48800.0   9.626e-12   
48900.0   1.21e-09   
49000.0   2.85e-09   
49100.0   3.143e-13   
49200.0   1.041e-10   
49300.0   2.513e-09   
49400.0   4.288e-09   
49500.0   1.856e-09   
49600.0   9.366e-09   
49700.0   9.993e-09   
49800.0   8.869e-09   
49900.0   2.193e-08   
50000.0   4.13e-08   
50100.0   3.003e-08   
50200.0   2.357e-08   
50300.0   1.863e-08   
50400.0   1.61e-08   
50500.0   1.674e-08   
50600.0   1.693e-08   
50700.0   1.751e-08   
50800.0   1.812e-08   
50900.0   1.822e-08   
51000.0   1.733e-08   
51100.0   1.781e-08   
51200.0   1.737e-08   
51300.0   1.8e-08   
51400.0   1.804e-08   
51500.0   1.742e-08   
51600.0   1.676e-08   
51700.0   1.643e-08   
51800.0   1.619e-08   
51900.0   1.603e-08   
52000.0   1.594e-08   
52100.0   1.547e-08   
52200.0   1.62e-08   
52300.0   1.656e-08   
52400.0   1.647e-08   
52500.0   1.788e-08   
52600.0   1.936e-08   
52700.0   2.027e-08   
52800.0   2.078e-08   
52900.0   2.205e-08   
53000.0   2.269e-08   
53100.0   2.38e-08   
53200.0   2.6e-08   
53300.0   2.641e-08   
53400.0   2.412e-08   
53500.0   2.516e-08   
53600.0   2.64e-08   
53700.0   2.563e-08   
53800.0   2.477e-08   
53900.0   2.602e-08   
54000.0   2.607e-08   
54100.0   2.588e-08   
54200.0   2.581e-08   
54300.0   2.566e-08   
54400.0   2.087e-08   
54500.0   2.383e-08   
54600.0   2.589e-08   
54700.0   2.552e-08   
54800.0   2.472e-08   
54900.0   2.585e-08   
55000.0   2.475e-08   
55100.0   2.364e-08   
55200.0   2.268e-08   
55300.0   2.146e-08   
55400.0   2.011e-08   
55500.0   1.928e-08   
55600.0   1.776e-08   
55700.0   1.59e-08   
55800.0   1.5e-08   
55900.0   1.362e-08   
56000.0   1.229e-08   
56100.0   1.122e-08   
56200.0   1.068e-08   
56300.0   9.323e-09   
56400.0   8.803e-09   
56500.0   7.477e-09   
56600.0   7.067e-09   
56700.0   6.271e-09   
56800.0   4.831e-09   
56900.0   4.249e-09   
57000.0   3.384e-09   
57100.0   2.602e-09   
57200.0   2.735e-09   
57300.0   2.541e-09   
57400.0   2.814e-09   
57500.0   3.104e-09   
57600.0   3.678e-09   
57700.0   4.382e-09   
57800.0   4.846e-09   
57900.0   5.177e-09   
58000.0   5.754e-09   
58100.0   6.253e-09   
58200.0   7.327e-09   
58300.0   7.498e-09   
58400.0   8.246e-09   
58500.0   9.092e-09   
58600.0   9.524e-09   
58700.0   9.941e-09   
58800.0   1.109e-08   
58900.0   1.17e-08   
59000.0   1.176e-08   
59100.0   1.221e-08   
59200.0   1.263e-08   
59300.0   1.408e-08   
59400.0   1.376e-08   
59500.0   1.444e-08   
59600.0   1.462e-08   
59700.0   1.565e-08   
59800.0   1.549e-08   
59900.0   1.563e-08   
60000.0   1.652e-08   
60100.0   1.589e-08   
60200.0   1.596e-08   
60300.0   1.585e-08   
60400.0   1.556e-08   
60500.0   1.632e-08   
60600.0   1.478e-08   
60700.0   1.455e-08   
60800.0   1.451e-08   
60900.0   1.437e-08   
61000.0   1.471e-08   
61100.0   1.453e-08   
61200.0   1.468e-08   
61300.0   1.526e-08   
61400.0   1.664e-08   
61500.0   1.794e-08   
61600.0   2.074e-08   
61700.0   2.019e-08   
61800.0   2.091e-08   
61900.0   2.39e-08   
62000.0   2.338e-08   
62100.0   3.256e-08   
62200.0   3.578e-08   
62300.0   4.112e-08   
62400.0   5.795e-08   
62500.0   7.895e-08   
62600.0   1.079e-07   
62700.0   1.385e-07   
62800.0   1.736e-07   
62900.0   2.029e-07   
63000.0   2.203e-07   
63100.0   1.084e-07   
63200.0   3.137e-07   
63300.0   2.95e-07   
63400.0   2.59e-07   
63500.0   2.413e-07   
63600.0   2.515e-08   
63700.0   2.038e-08   
63800.0   3.349e-08   
63900.0   1.871e-07   
64000.0   1.681e-07   
64100.0   3.339e-07   
64200.0   3.21e-07   
64300.0   2.287e-07   
64400.0   2.948e-07   
64500.0   2.882e-07   
64600.0   2.241e-07   
64700.0   2.754e-07   
64800.0   9.924e-08   
64900.0   2.735e-07   
65000.0   2.376e-07   
